#Digilent WaveForms Oscilloscope Acquisition
#Device Name: Discovery2
#Serial Number: SN:210321A18754
#Date Time: 2019-04-23 16:58:36.115
#Sample rate: 800000Hz
#Samples: 8192
#Trigger: Source: Wavegen 1 Condition: Rising
#Channel 1: Range: 500 mV/div Offset: -2.5 V
#Wavegen Channel 1: Running
#Mode: Simple
#Type: Square
#Frequency: 500 Hz
#Amplitude: 1 V
#Offset: 3 V
#Symmetry: 50 %
#Phase: 0 Â°
#Power Supplies: ON
#Positive Supply: ON
#Voltage: 5 V
#Negative Supply: OFF
#Voltage: -1 V

Time (s),Channel 1 (V)
-0.00512,3.95364
-0.00511875,3.95398
-0.0051175,3.95331
-0.00511625,3.95364
-0.005115,3.95364
-0.00511375,3.95331
-0.0051125,3.95331
-0.00511125,3.95364
-0.00511,3.95364
-0.00510875,3.95331
-0.0051075,3.95398
-0.00510625,3.95331
-0.005105,3.95364
-0.00510375,3.95364
-0.0051025,3.95297
-0.00510125,3.95398
-0.0051,3.95364
-0.00509875,3.95364
-0.0050975,3.95364
-0.00509625,3.95398
-0.005095,3.95364
-0.00509375,3.95331
-0.0050925,3.95364
-0.00509125,3.95297
-0.00509,3.95331
-0.00508875,3.95297
-0.0050875,3.95297
-0.00508625,3.95364
-0.005085,3.95331
-0.00508375,3.95398
-0.0050825,3.95364
-0.00508125,3.95297
-0.00508,3.95297
-0.00507875,3.95331
-0.0050775,3.95364
-0.00507625,3.95331
-0.005075,3.95364
-0.00507375,3.95364
-0.0050725,3.95331
-0.00507125,3.95297
-0.00507,3.95297
-0.00506875,3.95331
-0.0050675,3.95364
-0.00506625,3.95331
-0.005065,3.95331
-0.00506375,3.95364
-0.0050625,3.95398
-0.00506125,3.95331
-0.00506,3.95364
-0.00505875,3.95331
-0.0050575,3.95331
-0.00505625,3.95331
-0.005055,3.95331
-0.00505375,3.95331
-0.0050525,3.95297
-0.00505125,3.95331
-0.00505,3.95297
-0.00504875,3.95263
-0.0050475,3.95331
-0.00504625,3.95331
-0.005045,3.95331
-0.00504375,3.95297
-0.0050425,3.95364
-0.00504125,3.95364
-0.00504,3.95364
-0.00503875,3.95398
-0.0050375,3.95364
-0.00503625,3.95331
-0.005035,3.95331
-0.00503375,3.95331
-0.0050325,3.95331
-0.00503125,3.95364
-0.00503,3.95364
-0.00502875,3.95331
-0.0050275,3.95364
-0.00502625,3.95364
-0.005025,3.95331
-0.00502375,3.95331
-0.0050225,3.95331
-0.00502125,3.95364
-0.00502,3.95331
-0.00501875,3.95364
-0.0050175,3.95331
-0.00501625,3.95364
-0.005015,3.95398
-0.00501375,3.95398
-0.0050125,3.95364
-0.00501125,3.95364
-0.00501,3.95331
-0.00500875,3.95331
-0.0050075,3.95398
-0.00500625,3.95331
-0.005005,3.95297
-0.00500375,3.95364
-0.0050025,3.95331
-0.00500125,3.95263
-0.005,3.93212
-0.00499875,3.89144
-0.0049975,3.84941
-0.00499625,3.80771
-0.004995,3.76635
-0.00499375,3.72432
-0.0049925,3.68229
-0.00499125,3.64093
-0.00499,3.5989
-0.00498875,3.55721
-0.0049875,3.51551
-0.00498625,3.47416
-0.004985,3.43246
-0.00498375,3.3911
-0.0049825,3.35008
-0.00498125,3.30906
-0.00498,3.2677
-0.00497875,3.22668
-0.0049775,3.18532
-0.00497625,3.14396
-0.004975,3.10328
-0.00497375,3.06259
-0.0049725,3.02157
-0.00497125,2.98088
-0.00497,2.94053
-0.00496875,2.89985
-0.0049675,2.8595
-0.00496625,2.81949
-0.004965,2.77947
-0.00496375,2.73879
-0.0049625,2.69844
-0.00496125,2.65842
-0.00496,2.61807
-0.00495875,2.57772
-0.0049575,2.53738
-0.00495625,2.49803
-0.004955,2.45836
-0.00495375,2.41902
-0.0049525,2.37968
-0.00495125,2.33966
-0.00495,2.30066
-0.00494875,2.26199
-0.0049475,2.225
-0.00494625,2.19003
-0.004945,2.15876
-0.00494375,2.13153
-0.0049425,2.10799
-0.00494125,2.08748
-0.00494,2.071
-0.00493875,2.05688
-0.0049375,2.04444
-0.00493625,2.03368
-0.004935,2.0246
-0.00493375,2.01754
-0.0049325,2.01115
-0.00493125,2.0051
-0.00493,2.00005
-0.00492875,1.99568
-0.0049275,1.99198
-0.00492625,1.98929
-0.004925,1.9866
-0.00492375,1.98391
-0.0049225,1.9819
-0.00492125,1.98055
-0.00492,1.97887
-0.00491875,1.97786
-0.0049175,1.97652
-0.00491625,1.97652
-0.004915,1.97551
-0.00491375,1.97484
-0.0049125,1.97416
-0.00491125,1.97383
-0.00491,1.97316
-0.00490875,1.97282
-0.0049075,1.97248
-0.00490625,1.97282
-0.004905,1.97215
-0.00490375,1.97215
-0.0049025,1.97215
-0.00490125,1.97181
-0.0049,1.97215
-0.00489875,1.97215
-0.0048975,1.97215
-0.00489625,1.97181
-0.004895,1.97181
-0.00489375,1.97248
-0.0048925,1.97215
-0.00489125,1.97181
-0.00489,1.97181
-0.00488875,1.97215
-0.0048875,1.97181
-0.00488625,1.97181
-0.004885,1.97147
-0.00488375,1.97181
-0.0048825,1.97181
-0.00488125,1.97215
-0.00488,1.97181
-0.00487875,1.97181
-0.0048775,1.97215
-0.00487625,1.97215
-0.004875,1.97181
-0.00487375,1.97181
-0.0048725,1.97215
-0.00487125,1.97215
-0.00487,1.97147
-0.00486875,1.97147
-0.0048675,1.97181
-0.00486625,1.97181
-0.004865,1.97147
-0.00486375,1.97147
-0.0048625,1.97147
-0.00486125,1.97147
-0.00486,1.97114
-0.00485875,1.97147
-0.0048575,1.97114
-0.00485625,1.97114
-0.004855,1.97147
-0.00485375,1.97181
-0.0048525,1.97114
-0.00485125,1.97147
-0.00485,1.97147
-0.00484875,1.97114
-0.0048475,1.97147
-0.00484625,1.97114
-0.004845,1.97147
-0.00484375,1.97114
-0.0048425,1.97181
-0.00484125,1.97147
-0.00484,1.9708
-0.00483875,1.9708
-0.0048375,1.97114
-0.00483625,1.97181
-0.004835,1.97181
-0.00483375,1.97181
-0.0048325,1.97114
-0.00483125,1.9708
-0.00483,1.97114
-0.00482875,1.9708
-0.0048275,1.9708
-0.00482625,1.97147
-0.004825,1.97114
-0.00482375,1.97114
-0.0048225,1.97147
-0.00482125,1.9708
-0.00482,1.97147
-0.00481875,1.97114
-0.0048175,1.97114
-0.00481625,1.97114
-0.004815,1.97114
-0.00481375,1.97047
-0.0048125,1.9708
-0.00481125,1.97114
-0.00481,1.97114
-0.00480875,1.9708
-0.0048075,1.9708
-0.00480625,1.9708
-0.004805,1.9708
-0.00480375,1.9708
-0.0048025,1.97114
-0.00480125,1.9708
-0.0048,1.9708
-0.00479875,1.9708
-0.0047975,1.9708
-0.00479625,1.9708
-0.004795,1.97114
-0.00479375,1.9708
-0.0047925,1.9708
-0.00479125,1.9708
-0.00479,1.9708
-0.00478875,1.97114
-0.0047875,1.9708
-0.00478625,1.97114
-0.004785,1.97114
-0.00478375,1.97147
-0.0047825,1.97114
-0.00478125,1.97114
-0.00478,1.97114
-0.00477875,1.97114
-0.0047775,1.97114
-0.00477625,1.97114
-0.004775,1.9708
-0.00477375,1.97114
-0.0047725,1.9708
-0.00477125,1.9708
-0.00477,1.9708
-0.00476875,1.97047
-0.0047675,1.97047
-0.00476625,1.97114
-0.004765,1.97114
-0.00476375,1.9708
-0.0047625,1.97114
-0.00476125,1.97114
-0.00476,1.97147
-0.00475875,1.9708
-0.0047575,1.97114
-0.00475625,1.97114
-0.004755,1.97114
-0.00475375,1.9708
-0.0047525,1.9708
-0.00475125,1.97047
-0.00475,1.9708
-0.00474875,1.97013
-0.0047475,1.9708
-0.00474625,1.9708
-0.004745,1.9708
-0.00474375,1.97047
-0.0047425,1.97013
-0.00474125,1.9708
-0.00474,1.9708
-0.00473875,1.97114
-0.0047375,1.9708
-0.00473625,1.97047
-0.004735,1.9708
-0.00473375,1.9708
-0.0047325,1.9708
-0.00473125,1.9708
-0.00473,1.9708
-0.00472875,1.9708
-0.0047275,1.97114
-0.00472625,1.9708
-0.004725,1.9708
-0.00472375,1.97114
-0.0047225,1.97147
-0.00472125,1.97047
-0.00472,1.9708
-0.00471875,1.97114
-0.0047175,1.9708
-0.00471625,1.9708
-0.004715,1.9708
-0.00471375,1.97114
-0.0047125,1.9708
-0.00471125,1.97114
-0.00471,1.97181
-0.00470875,1.97114
-0.0047075,1.97114
-0.00470625,1.97147
-0.004705,1.97114
-0.00470375,1.9708
-0.0047025,1.9708
-0.00470125,1.97114
-0.0047,1.9708
-0.00469875,1.97114
-0.0046975,1.97114
-0.00469625,1.9708
-0.004695,1.97114
-0.00469375,1.9708
-0.0046925,1.97114
-0.00469125,1.9708
-0.00469,1.9708
-0.00468875,1.97114
-0.0046875,1.97114
-0.00468625,1.97114
-0.004685,1.97114
-0.00468375,1.97114
-0.0046825,1.97114
-0.00468125,1.9708
-0.00468,1.97114
-0.00467875,1.97114
-0.0046775,1.97114
-0.00467625,1.9708
-0.004675,1.9708
-0.00467375,1.9708
-0.0046725,1.97114
-0.00467125,1.97114
-0.00467,1.97114
-0.00466875,1.97114
-0.0046675,1.97114
-0.00466625,1.9708
-0.004665,1.9708
-0.00466375,1.9708
-0.0046625,1.9708
-0.00466125,1.97047
-0.00466,1.97114
-0.00465875,1.9708
-0.0046575,1.9708
-0.00465625,1.97047
-0.004655,1.97114
-0.00465375,1.97114
-0.0046525,1.9708
-0.00465125,1.97114
-0.00465,1.97147
-0.00464875,1.97114
-0.0046475,1.97114
-0.00464625,1.97114
-0.004645,1.97114
-0.00464375,1.9708
-0.0046425,1.97114
-0.00464125,1.9708
-0.00464,1.97047
-0.00463875,1.9708
-0.0046375,1.97114
-0.00463625,1.97147
-0.004635,1.9708
-0.00463375,1.97114
-0.0046325,1.97114
-0.00463125,1.97114
-0.00463,1.9708
-0.00462875,1.9708
-0.0046275,1.97114
-0.00462625,1.9708
-0.004625,1.97114
-0.00462375,1.9708
-0.0046225,1.9708
-0.00462125,1.9708
-0.00462,1.97114
-0.00461875,1.97114
-0.0046175,1.97013
-0.00461625,1.9708
-0.004615,1.97181
-0.00461375,1.97114
-0.0046125,1.9708
-0.00461125,1.9708
-0.00461,1.97114
-0.00460875,1.97114
-0.0046075,1.9708
-0.00460625,1.9708
-0.004605,1.97147
-0.00460375,1.97114
-0.0046025,1.97114
-0.00460125,1.9708
-0.0046,1.9708
-0.00459875,1.97114
-0.0045975,1.9708
-0.00459625,1.97047
-0.004595,1.97047
-0.00459375,1.9708
-0.0045925,1.97114
-0.00459125,1.9708
-0.00459,1.97114
-0.00458875,1.97114
-0.0045875,1.97047
-0.00458625,1.97114
-0.004585,1.97114
-0.00458375,1.97114
-0.0045825,1.9708
-0.00458125,1.97114
-0.00458,1.9708
-0.00457875,1.97147
-0.0045775,1.9708
-0.00457625,1.9708
-0.004575,1.9708
-0.00457375,1.97114
-0.0045725,1.9708
-0.00457125,1.97114
-0.00457,1.97114
-0.00456875,1.97114
-0.0045675,1.97114
-0.00456625,1.97114
-0.004565,1.9708
-0.00456375,1.97047
-0.0045625,1.97114
-0.00456125,1.97147
-0.00456,1.97114
-0.00455875,1.9708
-0.0045575,1.9708
-0.00455625,1.97047
-0.004555,1.97013
-0.00455375,1.97114
-0.0045525,1.9708
-0.00455125,1.97114
-0.00455,1.97114
-0.00454875,1.97047
-0.0045475,1.97047
-0.00454625,1.97013
-0.004545,1.97047
-0.00454375,1.9708
-0.0045425,1.9708
-0.00454125,1.9708
-0.00454,1.9708
-0.00453875,1.97047
-0.0045375,1.9708
-0.00453625,1.9708
-0.004535,1.97114
-0.00453375,1.9708
-0.0045325,1.9708
-0.00453125,1.97114
-0.00453,1.9708
-0.00452875,1.9708
-0.0045275,1.97114
-0.00452625,1.9708
-0.004525,1.9708
-0.00452375,1.9708
-0.0045225,1.9708
-0.00452125,1.97047
-0.00452,1.9708
-0.00451875,1.9708
-0.0045175,1.97114
-0.00451625,1.9708
-0.004515,1.97114
-0.00451375,1.9708
-0.0045125,1.97047
-0.00451125,1.9708
-0.00451,1.97114
-0.00450875,1.9708
-0.0045075,1.9708
-0.00450625,1.97047
-0.004505,1.97114
-0.00450375,1.97047
-0.0045025,1.9708
-0.00450125,1.97114
-0.0045,1.9708
-0.00449875,1.9708
-0.0044975,1.97114
-0.00449625,1.97114
-0.004495,1.9708
-0.00449375,1.9708
-0.0044925,1.97114
-0.00449125,1.97114
-0.00449,1.9708
-0.00448875,1.9708
-0.0044875,1.97114
-0.00448625,1.97114
-0.004485,1.97114
-0.00448375,1.97114
-0.0044825,1.97114
-0.00448125,1.97114
-0.00448,1.97114
-0.00447875,1.97114
-0.0044775,1.97114
-0.00447625,1.97114
-0.004475,1.97147
-0.00447375,1.9708
-0.0044725,1.97147
-0.00447125,1.97114
-0.00447,1.97114
-0.00446875,1.9708
-0.0044675,1.9708
-0.00446625,1.9708
-0.004465,1.9708
-0.00446375,1.9708
-0.0044625,1.97047
-0.00446125,1.97114
-0.00446,1.97114
-0.00445875,1.9708
-0.0044575,1.9708
-0.00445625,1.97114
-0.004455,1.97047
-0.00445375,1.9708
-0.0044525,1.9708
-0.00445125,1.97114
-0.00445,1.9708
-0.00444875,1.97114
-0.0044475,1.97114
-0.00444625,1.9708
-0.004445,1.97114
-0.00444375,1.97114
-0.0044425,1.97114
-0.00444125,1.97114
-0.00444,1.9708
-0.00443875,1.97047
-0.0044375,1.97114
-0.00443625,1.9708
-0.004435,1.97114
-0.00443375,1.97114
-0.0044325,1.9708
-0.00443125,1.97114
-0.00443,1.97114
-0.00442875,1.97114
-0.0044275,1.97114
-0.00442625,1.97114
-0.004425,1.97114
-0.00442375,1.97114
-0.0044225,1.97114
-0.00442125,1.97114
-0.00442,1.97147
-0.00441875,1.97114
-0.0044175,1.9708
-0.00441625,1.9708
-0.004415,1.9708
-0.00441375,1.9708
-0.0044125,1.97114
-0.00441125,1.97114
-0.00441,1.97114
-0.00440875,1.97114
-0.0044075,1.97147
-0.00440625,1.97147
-0.004405,1.9708
-0.00440375,1.97114
-0.0044025,1.97047
-0.00440125,1.9708
-0.0044,1.9708
-0.00439875,1.9708
-0.0043975,1.9708
-0.00439625,1.97013
-0.004395,1.9708
-0.00439375,1.9708
-0.0043925,1.9708
-0.00439125,1.97114
-0.00439,1.97114
-0.00438875,1.9708
-0.0043875,1.9708
-0.00438625,1.9708
-0.004385,1.97013
-0.00438375,1.97047
-0.0043825,1.97047
-0.00438125,1.9708
-0.00438,1.97047
-0.00437875,1.97047
-0.0043775,1.97047
-0.00437625,1.97047
-0.004375,1.97047
-0.00437375,1.97047
-0.0043725,1.97114
-0.00437125,1.97114
-0.00437,1.97114
-0.00436875,1.9708
-0.0043675,1.9708
-0.00436625,1.97047
-0.004365,1.97047
-0.00436375,1.97013
-0.0043625,1.97047
-0.00436125,1.97013
-0.00436,1.9708
-0.00435875,1.9708
-0.0043575,1.9708
-0.00435625,1.97047
-0.004355,1.97013
-0.00435375,1.97013
-0.0043525,1.97047
-0.00435125,1.97047
-0.00435,1.9708
-0.00434875,1.97047
-0.0043475,1.97013
-0.00434625,1.97047
-0.004345,1.9708
-0.00434375,1.97047
-0.0043425,1.97047
-0.00434125,1.9708
-0.00434,1.97047
-0.00433875,1.97047
-0.0043375,1.97047
-0.00433625,1.9708
-0.004335,1.9708
-0.00433375,1.9708
-0.0043325,1.9708
-0.00433125,1.9708
-0.00433,1.9708
-0.00432875,1.9708
-0.0043275,1.9708
-0.00432625,1.97114
-0.004325,1.97114
-0.00432375,1.9708
-0.0043225,1.9708
-0.00432125,1.9708
-0.00432,1.97047
-0.00431875,1.97114
-0.0043175,1.9708
-0.00431625,1.97047
-0.004315,1.9708
-0.00431375,1.9708
-0.0043125,1.97114
-0.00431125,1.97114
-0.00431,1.97114
-0.00430875,1.9708
-0.0043075,1.9708
-0.00430625,1.9708
-0.004305,1.97114
-0.00430375,1.97147
-0.0043025,1.97147
-0.00430125,1.9708
-0.0043,1.9708
-0.00429875,1.9708
-0.0042975,1.97047
-0.00429625,1.97047
-0.004295,1.97047
-0.00429375,1.9708
-0.0042925,1.97147
-0.00429125,1.97114
-0.00429,1.9708
-0.00428875,1.9708
-0.0042875,1.9708
-0.00428625,1.97047
-0.004285,1.9708
-0.00428375,1.9708
-0.0042825,1.9708
-0.00428125,1.9708
-0.00428,1.97114
-0.00427875,1.97114
-0.0042775,1.97181
-0.00427625,1.97114
-0.004275,1.97147
-0.00427375,1.9708
-0.0042725,1.97114
-0.00427125,1.97147
-0.00427,1.97147
-0.00426875,1.9708
-0.0042675,1.97114
-0.00426625,1.97114
-0.004265,1.9708
-0.00426375,1.97114
-0.0042625,1.97147
-0.00426125,1.97147
-0.00426,1.9708
-0.00425875,1.97114
-0.0042575,1.9708
-0.00425625,1.9708
-0.004255,1.9708
-0.00425375,1.97114
-0.0042525,1.97114
-0.00425125,1.97114
-0.00425,1.97114
-0.00424875,1.97147
-0.0042475,1.97147
-0.00424625,1.97147
-0.004245,1.97114
-0.00424375,1.97147
-0.0042425,1.97147
-0.00424125,1.97147
-0.00424,1.97147
-0.00423875,1.97114
-0.0042375,1.97047
-0.00423625,1.97114
-0.004235,1.9708
-0.00423375,1.97114
-0.0042325,1.9708
-0.00423125,1.97114
-0.00423,1.97114
-0.00422875,1.97114
-0.0042275,1.97114
-0.00422625,1.9708
-0.004225,1.9708
-0.00422375,1.97114
-0.0042225,1.97114
-0.00422125,1.9708
-0.00422,1.9708
-0.00421875,1.9708
-0.0042175,1.9708
-0.00421625,1.97114
-0.004215,1.97047
-0.00421375,1.9708
-0.0042125,1.97147
-0.00421125,1.97147
-0.00421,1.97114
-0.00420875,1.9708
-0.0042075,1.9708
-0.00420625,1.97114
-0.004205,1.97147
-0.00420375,1.97147
-0.0042025,1.97114
-0.00420125,1.9708
-0.0042,1.9708
-0.00419875,1.9708
-0.0041975,1.97114
-0.00419625,1.97114
-0.004195,1.9708
-0.00419375,1.9708
-0.0041925,1.97114
-0.00419125,1.97047
-0.00419,1.97114
-0.00418875,1.9708
-0.0041875,1.9708
-0.00418625,1.97114
-0.004185,1.97114
-0.00418375,1.97147
-0.0041825,1.97114
-0.00418125,1.97114
-0.00418,1.97114
-0.00417875,1.9708
-0.0041775,1.97147
-0.00417625,1.97147
-0.004175,1.97114
-0.00417375,1.9708
-0.0041725,1.9708
-0.00417125,1.9708
-0.00417,1.9708
-0.00416875,1.97047
-0.0041675,1.97047
-0.00416625,1.9708
-0.004165,1.9708
-0.00416375,1.9708
-0.0041625,1.97147
-0.00416125,1.97114
-0.00416,1.97114
-0.00415875,1.97047
-0.0041575,1.97047
-0.00415625,1.97013
-0.004155,1.97047
-0.00415375,1.97047
-0.0041525,1.9708
-0.00415125,1.97047
-0.00415,1.97047
-0.00414875,1.9708
-0.0041475,1.97147
-0.00414625,1.9708
-0.004145,1.9708
-0.00414375,1.9708
-0.0041425,1.9708
-0.00414125,1.9708
-0.00414,1.9708
-0.00413875,1.9708
-0.0041375,1.9708
-0.00413625,1.9708
-0.004135,1.9708
-0.00413375,1.97114
-0.0041325,1.9708
-0.00413125,1.97114
-0.00413,1.97147
-0.00412875,1.97114
-0.0041275,1.97114
-0.00412625,1.97114
-0.004125,1.9708
-0.00412375,1.9708
-0.0041225,1.9708
-0.00412125,1.97114
-0.00412,1.97114
-0.00411875,1.97114
-0.0041175,1.97147
-0.00411625,1.97147
-0.004115,1.97147
-0.00411375,1.97147
-0.0041125,1.97114
-0.00411125,1.97147
-0.00411,1.97147
-0.00410875,1.97147
-0.0041075,1.97114
-0.00410625,1.97147
-0.004105,1.97147
-0.00410375,1.97147
-0.0041025,1.97147
-0.00410125,1.97114
-0.0041,1.97114
-0.00409875,1.9708
-0.0040975,1.9708
-0.00409625,1.97147
-0.004095,1.97114
-0.00409375,1.97147
-0.0040925,1.97181
-0.00409125,1.97147
-0.00409,1.9708
-0.00408875,1.97114
-0.0040875,1.97114
-0.00408625,1.97114
-0.004085,1.97114
-0.00408375,1.97114
-0.0040825,1.97114
-0.00408125,1.97114
-0.00408,1.97147
-0.00407875,1.9708
-0.0040775,1.9708
-0.00407625,1.97114
-0.004075,1.97114
-0.00407375,1.97114
-0.0040725,1.97114
-0.00407125,1.97114
-0.00407,1.97147
-0.00406875,1.97147
-0.0040675,1.97114
-0.00406625,1.97114
-0.004065,1.97114
-0.00406375,1.97114
-0.0040625,1.9708
-0.00406125,1.9708
-0.00406,1.97047
-0.00405875,1.9708
-0.0040575,1.9708
-0.00405625,1.97114
-0.004055,1.97147
-0.00405375,1.97114
-0.0040525,1.9708
-0.00405125,1.9708
-0.00405,1.97114
-0.00404875,1.97147
-0.0040475,1.97114
-0.00404625,1.97147
-0.004045,1.9708
-0.00404375,1.9708
-0.0040425,1.97147
-0.00404125,1.97114
-0.00404,1.9708
-0.00403875,1.9708
-0.0040375,1.9708
-0.00403625,1.9708
-0.004035,1.97047
-0.00403375,1.9708
-0.0040325,1.97114
-0.00403125,1.9708
-0.00403,1.97114
-0.00402875,1.97114
-0.0040275,1.97114
-0.00402625,1.9708
-0.004025,1.9708
-0.00402375,1.9708
-0.0040225,1.9708
-0.00402125,1.9708
-0.00402,1.9708
-0.00401875,1.9708
-0.0040175,1.97047
-0.00401625,1.9708
-0.004015,1.97114
-0.00401375,1.97114
-0.0040125,1.9708
-0.00401125,1.9708
-0.00401,1.97047
-0.00400875,1.97047
-0.0040075,1.9708
-0.00400625,1.9708
-0.004005,1.9708
-0.00400375,1.9708
-0.0040025,1.9708
-0.00400125,1.98156
-0.004,2.00409
-0.00399875,2.00779
-0.0039975,2.01283
-0.00399625,2.01754
-0.003995,2.02258
-0.00399375,2.0283
-0.0039925,2.03402
-0.00399125,2.03906
-0.00399,2.04545
-0.00398875,2.05116
-0.0039875,2.05755
-0.00398625,2.06394
-0.003985,2.07067
-0.00398375,2.07672
-0.0039825,2.08412
-0.00398125,2.0905
-0.00398,2.09656
-0.00397875,2.10395
-0.0039775,2.11135
-0.00397625,2.11774
-0.003975,2.12514
-0.00397375,2.13186
-0.0039725,2.13892
-0.00397125,2.14565
-0.00397,2.15271
-0.00396875,2.16011
-0.0039675,2.16683
-0.00396625,2.17423
-0.003965,2.18163
-0.00396375,2.18835
-0.0039625,2.19575
-0.00396125,2.20315
-0.00396,2.21054
-0.00395875,2.21794
-0.0039575,2.225
-0.00395625,2.23206
-0.003955,2.2398
-0.00395375,2.2472
-0.0039525,2.25325
-0.00395125,2.26132
-0.00395,2.26872
-0.00394875,2.27544
-0.0039475,2.28284
-0.00394625,2.29057
-0.003945,2.29763
-0.00394375,2.30469
-0.0039425,2.31209
-0.00394125,2.31915
-0.00394,2.32655
-0.00393875,2.33428
-0.0039375,2.34168
-0.00393625,2.34841
-0.003935,2.35513
-0.00393375,2.36253
-0.0039325,2.37026
-0.00393125,2.37732
-0.00393,2.38438
-0.00392875,2.39212
-0.0039275,2.39918
-0.00392625,2.4059
-0.003925,2.41364
-0.00392375,2.4207
-0.0039225,2.4281
-0.00392125,2.43516
-0.00392,2.44222
-0.00391875,2.44928
-0.0039175,2.45634
-0.00391625,2.4634
-0.003915,2.47046
-0.00391375,2.47786
-0.0039125,2.48526
-0.00391125,2.49198
-0.00391,2.49938
-0.00390875,2.5061
-0.0039075,2.51317
-0.00390625,2.52056
-0.003905,2.52729
-0.00390375,2.53435
-0.0039025,2.54141
-0.00390125,2.54814
-0.0039,2.5552
-0.00389875,2.56226
-0.0038975,2.56932
-0.00389625,2.57672
-0.003895,2.5831
-0.00389375,2.5905
-0.0038925,2.59723
-0.00389125,2.60429
-0.00389,2.61135
-0.00388875,2.61807
-0.0038875,2.6248
-0.00388625,2.6322
-0.003885,2.63892
-0.00388375,2.64565
-0.0038825,2.65271
-0.00388125,2.65977
-0.00388,2.66616
-0.00387875,2.67288
-0.0038775,2.67994
-0.00387625,2.68667
-0.003875,2.69373
-0.00387375,2.70045
-0.0038725,2.70684
-0.00387125,2.71357
-0.00387,2.72063
-0.00386875,2.72702
-0.0038675,2.73408
-0.00386625,2.7408
-0.003865,2.74719
-0.00386375,2.75358
-0.0038625,2.76064
-0.00386125,2.76737
-0.00386,2.77409
-0.00385875,2.78014
-0.0038575,2.78687
-0.00385625,2.79359
-0.003855,2.80066
-0.00385375,2.80738
-0.0038525,2.81377
-0.00385125,2.82016
-0.00385,2.82688
-0.00384875,2.83361
-0.0038475,2.83966
-0.00384625,2.84639
-0.003845,2.85277
-0.00384375,2.8595
-0.0038425,2.86555
-0.00384125,2.87261
-0.00384,2.87934
-0.00383875,2.88539
-0.0038375,2.89245
-0.00383625,2.8985
-0.003835,2.90523
-0.00383375,2.91162
-0.0038325,2.91733
-0.00383125,2.92473
-0.00383,2.93112
-0.00382875,2.93717
-0.0038275,2.9439
-0.00382625,2.95029
-0.003825,2.95667
-0.00382375,2.96306
-0.0038225,2.96878
-0.00382125,2.97517
-0.00382,2.98156
-0.00381875,2.98761
-0.0038175,2.99433
-0.00381625,3.00106
-0.003815,3.00745
-0.00381375,3.01316
-0.0038125,3.01922
-0.00381125,3.02527
-0.00381,3.03166
-0.00380875,3.03771
-0.0038075,3.04443
-0.00380625,3.05049
-0.003805,3.05688
-0.00380375,3.06259
-0.0038025,3.06932
-0.00380125,3.07503
-0.0038,3.08142
-0.00379875,3.08747
-0.0037975,3.09353
-0.00379625,3.09991
-0.003795,3.10597
-0.00379375,3.11202
-0.0037925,3.11807
-0.00379125,3.12412
-0.00379,3.12984
-0.00378875,3.13556
-0.0037875,3.14195
-0.00378625,3.14833
-0.003785,3.15405
-0.00378375,3.16044
-0.0037825,3.16615
-0.00378125,3.17221
-0.00378,3.17792
-0.00377875,3.1833
-0.0037775,3.19003
-0.00377625,3.19642
-0.003775,3.20247
-0.00377375,3.20852
-0.0037725,3.21424
-0.00377125,3.21962
-0.00377,3.22567
-0.00376875,3.23172
-0.0037675,3.23744
-0.00376625,3.24349
-0.003765,3.24988
-0.00376375,3.2556
-0.0037625,3.26131
-0.00376125,3.26703
-0.00376,3.27308
-0.00375875,3.27913
-0.0037575,3.28418
-0.00375625,3.29023
-0.003755,3.29628
-0.00375375,3.30233
-0.0037525,3.30771
-0.00375125,3.31309
-0.00375,3.31915
-0.00374875,3.32453
-0.0037475,3.33058
-0.00374625,3.3363
-0.003745,3.34201
-0.00374375,3.34773
-0.0037425,3.35344
-0.00374125,3.35916
-0.00374,3.36454
-0.00373875,3.37059
-0.0037375,3.37564
-0.00373625,3.38169
-0.003735,3.38774
-0.00373375,3.39312
-0.0037325,3.3985
-0.00373125,3.40422
-0.00373,3.40926
-0.00372875,3.41498
-0.0037275,3.42103
-0.00372625,3.42641
-0.003725,3.43179
-0.00372375,3.43717
-0.0037225,3.44289
-0.00372125,3.4486
-0.00372,3.45398
-0.00371875,3.4597
-0.0037175,3.46575
-0.00371625,3.47079
-0.003715,3.47584
-0.00371375,3.48155
-0.0037125,3.48693
-0.00371125,3.49299
-0.00371,3.49837
-0.00370875,3.50307
-0.0037075,3.50845
-0.00370625,3.51451
-0.003705,3.51955
-0.00370375,3.52527
-0.0037025,3.53065
-0.00370125,3.53603
-0.0037,3.54141
-0.00369875,3.54679
-0.0036975,3.5525
-0.00369625,3.55754
-0.003695,3.56292
-0.00369375,3.5683
-0.0036925,3.57402
-0.00369125,3.57906
-0.00369,3.58444
-0.00368875,3.58949
-0.0036875,3.59487
-0.00368625,3.60025
-0.003685,3.60563
-0.00368375,3.61067
-0.0036825,3.61605
-0.00368125,3.62177
-0.00368,3.62648
-0.00367875,3.63152
-0.0036775,3.63656
-0.00367625,3.64194
-0.003675,3.64699
-0.00367375,3.65237
-0.0036725,3.65741
-0.00367125,3.66313
-0.00367,3.6675
-0.00366875,3.67254
-0.0036675,3.67826
-0.00366625,3.6833
-0.003665,3.68868
-0.00366375,3.69406
-0.0036625,3.69843
-0.00366125,3.70381
-0.00366,3.70886
-0.00365875,3.71424
-0.0036575,3.71928
-0.00365625,3.72365
-0.003655,3.72903
-0.00365375,3.73407
-0.0036525,3.73878
-0.00365125,3.7445
-0.00365,3.74921
-0.00364875,3.75425
-0.0036475,3.75896
-0.00364625,3.76434
-0.003645,3.76904
-0.00364375,3.77409
-0.0036425,3.77879
-0.00364125,3.78384
-0.00364,3.78821
-0.00363875,3.79359
-0.0036375,3.7983
-0.00363625,3.803
-0.003635,3.80872
-0.00363375,3.81343
-0.0036325,3.81847
-0.00363125,3.82318
-0.00363,3.82822
-0.00362875,3.83226
-0.0036275,3.83697
-0.00362625,3.84235
-0.003625,3.84773
-0.00362375,3.85243
-0.0036225,3.85714
-0.00362125,3.86185
-0.00362,3.86622
-0.00361875,3.87093
-0.0036175,3.87597
-0.00361625,3.88068
-0.003615,3.88572
-0.00361375,3.89076
-0.0036125,3.89547
-0.00361125,3.90052
-0.00361,3.90421
-0.00360875,3.90892
-0.0036075,3.91363
-0.00360625,3.91834
-0.003605,3.92304
-0.00360375,3.92708
-0.0036025,3.93179
-0.00360125,3.93616
-0.0036,3.94154
-0.00359875,3.94591
-0.0035975,3.94961
-0.00359625,3.95431
-0.003595,3.95902
-0.00359375,3.96272
-0.0035925,3.96709
-0.00359125,3.97146
-0.00359,3.97583
-0.00358875,3.97987
-0.0035875,3.98424
-0.00358625,3.98794
-0.003585,3.99197
-0.00358375,3.99601
-0.0035825,3.99937
-0.00358125,4.00307
-0.00358,4.00711
-0.00357875,4.01047
-0.0035775,4.01417
-0.00357625,4.01787
-0.003575,4.02089
-0.00357375,4.02224
-0.0035725,4.02089
-0.00357125,4.01652
-0.00357,4.01114
-0.00356875,4.00509
-0.0035675,3.99904
-0.00356625,3.99298
-0.003565,3.98794
-0.00356375,3.98357
-0.0035625,3.97953
-0.00356125,3.9755
-0.00356,3.97214
-0.00355875,3.96978
-0.0035575,3.96743
-0.00355625,3.96575
-0.003555,3.96407
-0.00355375,3.96171
-0.0035525,3.96037
-0.00355125,3.95969
-0.00355,3.95835
-0.00354875,3.95734
-0.0035475,3.95667
-0.00354625,3.95566
-0.003545,3.95532
-0.00354375,3.95465
-0.0035425,3.95465
-0.00354125,3.95431
-0.00354,3.95364
-0.00353875,3.95364
-0.0035375,3.95364
-0.00353625,3.95398
-0.003535,3.95364
-0.00353375,3.95364
-0.0035325,3.95331
-0.00353125,3.95364
-0.00353,3.95364
-0.00352875,3.95431
-0.0035275,3.95431
-0.00352625,3.95398
-0.003525,3.95431
-0.00352375,3.95431
-0.0035225,3.95465
-0.00352125,3.95465
-0.00352,3.95465
-0.00351875,3.95465
-0.0035175,3.95431
-0.00351625,3.95431
-0.003515,3.95431
-0.00351375,3.95465
-0.0035125,3.95465
-0.00351125,3.95499
-0.00351,3.95465
-0.00350875,3.95499
-0.0035075,3.95532
-0.00350625,3.95532
-0.003505,3.95532
-0.00350375,3.95499
-0.0035025,3.95499
-0.00350125,3.95532
-0.0035,3.95465
-0.00349875,3.95532
-0.0034975,3.95465
-0.00349625,3.95465
-0.003495,3.95465
-0.00349375,3.95532
-0.0034925,3.95465
-0.00349125,3.95499
-0.00349,3.95499
-0.00348875,3.95532
-0.0034875,3.95431
-0.00348625,3.95465
-0.003485,3.95499
-0.00348375,3.95431
-0.0034825,3.95398
-0.00348125,3.95465
-0.00348,3.95465
-0.00347875,3.95465
-0.0034775,3.95465
-0.00347625,3.95465
-0.003475,3.95499
-0.00347375,3.95499
-0.0034725,3.95465
-0.00347125,3.95465
-0.00347,3.95499
-0.00346875,3.95465
-0.0034675,3.95431
-0.00346625,3.95465
-0.003465,3.95499
-0.00346375,3.95465
-0.0034625,3.95465
-0.00346125,3.95465
-0.00346,3.95465
-0.00345875,3.95465
-0.0034575,3.95465
-0.00345625,3.95465
-0.003455,3.95431
-0.00345375,3.95431
-0.0034525,3.95499
-0.00345125,3.95499
-0.00345,3.95398
-0.00344875,3.95431
-0.0034475,3.95431
-0.00344625,3.95431
-0.003445,3.95364
-0.00344375,3.95431
-0.0034425,3.95431
-0.00344125,3.95431
-0.00344,3.95398
-0.00343875,3.95398
-0.0034375,3.95431
-0.00343625,3.95431
-0.003435,3.95431
-0.00343375,3.95398
-0.0034325,3.95398
-0.00343125,3.95364
-0.00343,3.95398
-0.00342875,3.95364
-0.0034275,3.95398
-0.00342625,3.95431
-0.003425,3.95465
-0.00342375,3.95431
-0.0034225,3.95398
-0.00342125,3.95331
-0.00342,3.95364
-0.00341875,3.95398
-0.0034175,3.95398
-0.00341625,3.95398
-0.003415,3.95398
-0.00341375,3.95364
-0.0034125,3.95364
-0.00341125,3.95364
-0.00341,3.95398
-0.00340875,3.95431
-0.0034075,3.95431
-0.00340625,3.95398
-0.003405,3.95431
-0.00340375,3.95398
-0.0034025,3.95465
-0.00340125,3.95364
-0.0034,3.95398
-0.00339875,3.95398
-0.0033975,3.95398
-0.00339625,3.95431
-0.003395,3.95431
-0.00339375,3.95431
-0.0033925,3.95398
-0.00339125,3.95398
-0.00339,3.95364
-0.00338875,3.95398
-0.0033875,3.95431
-0.00338625,3.95431
-0.003385,3.95499
-0.00338375,3.95431
-0.0033825,3.95431
-0.00338125,3.95431
-0.00338,3.95398
-0.00337875,3.95431
-0.0033775,3.95431
-0.00337625,3.95398
-0.003375,3.95431
-0.00337375,3.95398
-0.0033725,3.95398
-0.00337125,3.95398
-0.00337,3.95431
-0.00336875,3.95431
-0.0033675,3.95431
-0.00336625,3.95398
-0.003365,3.95398
-0.00336375,3.95398
-0.0033625,3.95364
-0.00336125,3.95398
-0.00336,3.95398
-0.00335875,3.95398
-0.0033575,3.95364
-0.00335625,3.95364
-0.003355,3.95398
-0.00335375,3.95398
-0.0033525,3.95398
-0.00335125,3.95431
-0.00335,3.95398
-0.00334875,3.95364
-0.0033475,3.95398
-0.00334625,3.95398
-0.003345,3.95398
-0.00334375,3.95398
-0.0033425,3.95398
-0.00334125,3.95431
-0.00334,3.95431
-0.00333875,3.95398
-0.0033375,3.95398
-0.00333625,3.95431
-0.003335,3.95364
-0.00333375,3.95398
-0.0033325,3.95431
-0.00333125,3.95398
-0.00333,3.95465
-0.00332875,3.95431
-0.0033275,3.95398
-0.00332625,3.95398
-0.003325,3.95398
-0.00332375,3.95431
-0.0033225,3.95431
-0.00332125,3.95398
-0.00332,3.95364
-0.00331875,3.95364
-0.0033175,3.95364
-0.00331625,3.95331
-0.003315,3.95398
-0.00331375,3.95431
-0.0033125,3.95431
-0.00331125,3.95431
-0.00331,3.95431
-0.00330875,3.95431
-0.0033075,3.95398
-0.00330625,3.95364
-0.003305,3.95331
-0.00330375,3.95331
-0.0033025,3.95364
-0.00330125,3.95398
-0.0033,3.95398
-0.00329875,3.95398
-0.0032975,3.95398
-0.00329625,3.95431
-0.003295,3.95398
-0.00329375,3.95364
-0.0032925,3.95398
-0.00329125,3.95398
-0.00329,3.95398
-0.00328875,3.95398
-0.0032875,3.95398
-0.00328625,3.95398
-0.003285,3.95398
-0.00328375,3.95364
-0.0032825,3.95364
-0.00328125,3.95398
-0.00328,3.95331
-0.00327875,3.95331
-0.0032775,3.95364
-0.00327625,3.95364
-0.003275,3.95331
-0.00327375,3.95364
-0.0032725,3.95364
-0.00327125,3.95364
-0.00327,3.95331
-0.00326875,3.95331
-0.0032675,3.95398
-0.00326625,3.95431
-0.003265,3.95431
-0.00326375,3.95431
-0.0032625,3.95431
-0.00326125,3.95364
-0.00326,3.95398
-0.00325875,3.95398
-0.0032575,3.95398
-0.00325625,3.95331
-0.003255,3.95331
-0.00325375,3.95398
-0.0032525,3.95364
-0.00325125,3.95331
-0.00325,3.95398
-0.00324875,3.95364
-0.0032475,3.95398
-0.00324625,3.95364
-0.003245,3.95364
-0.00324375,3.95331
-0.0032425,3.95331
-0.00324125,3.95331
-0.00324,3.95364
-0.00323875,3.95364
-0.0032375,3.95431
-0.00323625,3.95398
-0.003235,3.95398
-0.00323375,3.95398
-0.0032325,3.95431
-0.00323125,3.95431
-0.00323,3.95364
-0.00322875,3.95398
-0.0032275,3.95331
-0.00322625,3.95364
-0.003225,3.95331
-0.00322375,3.95331
-0.0032225,3.95364
-0.00322125,3.95364
-0.00322,3.95398
-0.00321875,3.95364
-0.0032175,3.95364
-0.00321625,3.95364
-0.003215,3.95398
-0.00321375,3.95398
-0.0032125,3.95364
-0.00321125,3.95364
-0.00321,3.95297
-0.00320875,3.95331
-0.0032075,3.95364
-0.00320625,3.95364
-0.003205,3.95331
-0.00320375,3.95331
-0.0032025,3.95331
-0.00320125,3.95364
-0.0032,3.95364
-0.00319875,3.95364
-0.0031975,3.95398
-0.00319625,3.95398
-0.003195,3.95331
-0.00319375,3.95331
-0.0031925,3.95398
-0.00319125,3.95364
-0.00319,3.95331
-0.00318875,3.95364
-0.0031875,3.95331
-0.00318625,3.95297
-0.003185,3.95331
-0.00318375,3.95364
-0.0031825,3.95364
-0.00318125,3.95364
-0.00318,3.95398
-0.00317875,3.95398
-0.0031775,3.95364
-0.00317625,3.95331
-0.003175,3.95331
-0.00317375,3.95364
-0.0031725,3.95331
-0.00317125,3.95331
-0.00317,3.95297
-0.00316875,3.95297
-0.0031675,3.95297
-0.00316625,3.95297
-0.003165,3.95297
-0.00316375,3.95364
-0.0031625,3.95364
-0.00316125,3.95331
-0.00316,3.95364
-0.00315875,3.95364
-0.0031575,3.95364
-0.00315625,3.95364
-0.003155,3.95364
-0.00315375,3.95364
-0.0031525,3.95331
-0.00315125,3.95331
-0.00315,3.95364
-0.00314875,3.95331
-0.0031475,3.95331
-0.00314625,3.95331
-0.003145,3.95398
-0.00314375,3.95364
-0.0031425,3.95364
-0.00314125,3.95398
-0.00314,3.95398
-0.00313875,3.95364
-0.0031375,3.95364
-0.00313625,3.95364
-0.003135,3.95364
-0.00313375,3.95364
-0.0031325,3.95364
-0.00313125,3.95364
-0.00313,3.95364
-0.00312875,3.95364
-0.0031275,3.95297
-0.00312625,3.95364
-0.003125,3.95364
-0.00312375,3.95364
-0.0031225,3.95331
-0.00312125,3.95331
-0.00312,3.95364
-0.00311875,3.95364
-0.0031175,3.95364
-0.00311625,3.95331
-0.003115,3.95331
-0.00311375,3.95297
-0.0031125,3.95297
-0.00311125,3.95331
-0.00311,3.95331
-0.00310875,3.95297
-0.0031075,3.95297
-0.00310625,3.95331
-0.003105,3.95331
-0.00310375,3.95331
-0.0031025,3.95331
-0.00310125,3.95331
-0.0031,3.95364
-0.00309875,3.95364
-0.0030975,3.95297
-0.00309625,3.95263
-0.003095,3.95331
-0.00309375,3.95331
-0.0030925,3.95297
-0.00309125,3.95331
-0.00309,3.95263
-0.00308875,3.95297
-0.0030875,3.95331
-0.00308625,3.95331
-0.003085,3.95297
-0.00308375,3.95297
-0.0030825,3.95331
-0.00308125,3.95297
-0.00308,3.95331
-0.00307875,3.95331
-0.0030775,3.95364
-0.00307625,3.95297
-0.003075,3.95331
-0.00307375,3.95331
-0.0030725,3.95364
-0.00307125,3.95331
-0.00307,3.95331
-0.00306875,3.95331
-0.0030675,3.95331
-0.00306625,3.95364
-0.003065,3.95398
-0.00306375,3.95297
-0.0030625,3.95297
-0.00306125,3.95364
-0.00306,3.95331
-0.00305875,3.95331
-0.0030575,3.95364
-0.00305625,3.95331
-0.003055,3.95331
-0.00305375,3.95331
-0.0030525,3.95331
-0.00305125,3.95364
-0.00305,3.95297
-0.00304875,3.95331
-0.0030475,3.95364
-0.00304625,3.95364
-0.003045,3.95331
-0.00304375,3.95331
-0.0030425,3.95331
-0.00304125,3.95331
-0.00304,3.95297
-0.00303875,3.95263
-0.0030375,3.95331
-0.00303625,3.95331
-0.003035,3.95297
-0.00303375,3.95331
-0.0030325,3.95364
-0.00303125,3.95398
-0.00303,3.95364
-0.00302875,3.95297
-0.0030275,3.95331
-0.00302625,3.95364
-0.003025,3.95331
-0.00302375,3.95331
-0.0030225,3.95297
-0.00302125,3.95297
-0.00302,3.95331
-0.00301875,3.95364
-0.0030175,3.95331
-0.00301625,3.95364
-0.003015,3.95297
-0.00301375,3.95331
-0.0030125,3.95331
-0.00301125,3.95331
-0.00301,3.95364
-0.00300875,3.95297
-0.0030075,3.95297
-0.00300625,3.95297
-0.003005,3.95331
-0.00300375,3.95331
-0.0030025,3.95364
-0.00300125,3.95297
-0.003,3.93212
-0.00299875,3.89144
-0.0029975,3.85008
-0.00299625,3.80805
-0.002995,3.76602
-0.00299375,3.725
-0.0029925,3.68263
-0.00299125,3.6406
-0.00299,3.59924
-0.00298875,3.55788
-0.0029875,3.51652
-0.00298625,3.47483
-0.002985,3.43381
-0.00298375,3.39245
-0.0029825,3.35143
-0.00298125,3.30973
-0.00298,3.26837
-0.00297875,3.22769
-0.0029775,3.18667
-0.00297625,3.14598
-0.002975,3.10496
-0.00297375,3.06427
-0.0029725,3.02359
-0.00297125,2.9829
-0.00297,2.94255
-0.00296875,2.90187
-0.0029675,2.86084
-0.00296625,2.82049
-0.002965,2.78048
-0.00296375,2.74013
-0.0029625,2.69945
-0.00296125,2.6591
-0.00296,2.61908
-0.00295875,2.57941
-0.0029575,2.53906
-0.00295625,2.49938
-0.002955,2.45937
-0.00295375,2.41969
-0.0029525,2.38001
-0.00295125,2.34067
-0.00295,2.30167
-0.00294875,2.26266
-0.0029475,2.22534
-0.00294625,2.19037
-0.002945,2.1591
-0.00294375,2.1322
-0.0029425,2.10833
-0.00294125,2.08849
-0.00294,2.07168
-0.00293875,2.05688
-0.0029375,2.04444
-0.00293625,2.03435
-0.002935,2.02527
-0.00293375,2.01754
-0.0029325,2.01081
-0.00293125,2.00476
-0.00293,2.00005
-0.00292875,1.99602
-0.0029275,1.99232
-0.00292625,1.98929
-0.002925,1.9866
-0.00292375,1.98425
-0.0029225,1.98223
-0.00292125,1.98089
-0.00292,1.97921
-0.00291875,1.97853
-0.0029175,1.97753
-0.00291625,1.97652
-0.002915,1.97551
-0.00291375,1.97484
-0.0029125,1.97383
-0.00291125,1.97316
-0.00291,1.97349
-0.00290875,1.97316
-0.0029075,1.97316
-0.00290625,1.97316
-0.002905,1.97282
-0.00290375,1.97282
-0.0029025,1.97215
-0.00290125,1.97215
-0.0029,1.97181
-0.00289875,1.97215
-0.0028975,1.97215
-0.00289625,1.97114
-0.002895,1.97114
-0.00289375,1.97147
-0.0028925,1.97147
-0.00289125,1.97147
-0.00289,1.97114
-0.00288875,1.97147
-0.0028875,1.97147
-0.00288625,1.97147
-0.002885,1.97147
-0.00288375,1.97147
-0.0028825,1.97181
-0.00288125,1.97147
-0.00288,1.97147
-0.00287875,1.97114
-0.0028775,1.97114
-0.00287625,1.97147
-0.002875,1.97147
-0.00287375,1.97114
-0.0028725,1.97147
-0.00287125,1.9708
-0.00287,1.97114
-0.00286875,1.97114
-0.0028675,1.97114
-0.00286625,1.97147
-0.002865,1.97114
-0.00286375,1.97147
-0.0028625,1.97114
-0.00286125,1.97114
-0.00286,1.9708
-0.00285875,1.9708
-0.0028575,1.97147
-0.00285625,1.97114
-0.002855,1.97114
-0.00285375,1.9708
-0.0028525,1.9708
-0.00285125,1.9708
-0.00285,1.9708
-0.00284875,1.9708
-0.0028475,1.97114
-0.00284625,1.97114
-0.002845,1.97147
-0.00284375,1.97114
-0.0028425,1.97114
-0.00284125,1.97147
-0.00284,1.97114
-0.00283875,1.97147
-0.0028375,1.9708
-0.00283625,1.9708
-0.002835,1.9708
-0.00283375,1.9708
-0.0028325,1.97114
-0.00283125,1.9708
-0.00283,1.9708
-0.00282875,1.9708
-0.0028275,1.97114
-0.00282625,1.97114
-0.002825,1.9708
-0.00282375,1.97114
-0.0028225,1.97114
-0.00282125,1.97114
-0.00282,1.97114
-0.00281875,1.97114
-0.0028175,1.9708
-0.00281625,1.9708
-0.002815,1.9708
-0.00281375,1.9708
-0.0028125,1.97047
-0.00281125,1.9708
-0.00281,1.97114
-0.00280875,1.97114
-0.0028075,1.97114
-0.00280625,1.9708
-0.002805,1.9708
-0.00280375,1.97147
-0.0028025,1.97114
-0.00280125,1.97114
-0.0028,1.9708
-0.00279875,1.9708
-0.0027975,1.97047
-0.00279625,1.9708
-0.002795,1.97114
-0.00279375,1.9708
-0.0027925,1.97047
-0.00279125,1.9708
-0.00279,1.9708
-0.00278875,1.97114
-0.0027875,1.9708
-0.00278625,1.97047
-0.002785,1.97114
-0.00278375,1.97114
-0.0027825,1.97013
-0.00278125,1.97047
-0.00278,1.9708
-0.00277875,1.9708
-0.0027775,1.9708
-0.00277625,1.9708
-0.002775,1.9708
-0.00277375,1.9708
-0.0027725,1.97047
-0.00277125,1.97047
-0.00277,1.9708
-0.00276875,1.9708
-0.0027675,1.97147
-0.00276625,1.97147
-0.002765,1.9708
-0.00276375,1.9708
-0.0027625,1.9708
-0.00276125,1.97114
-0.00276,1.9708
-0.00275875,1.9708
-0.0027575,1.97047
-0.00275625,1.97047
-0.002755,1.9708
-0.00275375,1.9708
-0.0027525,1.97047
-0.00275125,1.97047
-0.00275,1.97114
-0.00274875,1.97114
-0.0027475,1.9708
-0.00274625,1.97114
-0.002745,1.9708
-0.00274375,1.9708
-0.0027425,1.97114
-0.00274125,1.9708
-0.00274,1.97047
-0.00273875,1.9708
-0.0027375,1.97114
-0.00273625,1.9708
-0.002735,1.97047
-0.00273375,1.97047
-0.0027325,1.9708
-0.00273125,1.9708
-0.00273,1.9708
-0.00272875,1.9708
-0.0027275,1.9708
-0.00272625,1.9708
-0.002725,1.9708
-0.00272375,1.9708
-0.0027225,1.97114
-0.00272125,1.97147
-0.00272,1.97114
-0.00271875,1.97114
-0.0027175,1.97114
-0.00271625,1.97114
-0.002715,1.97114
-0.00271375,1.97114
-0.0027125,1.97114
-0.00271125,1.97147
-0.00271,1.97114
-0.00270875,1.97114
-0.0027075,1.97114
-0.00270625,1.97147
-0.002705,1.97147
-0.00270375,1.97147
-0.0027025,1.97114
-0.00270125,1.97114
-0.0027,1.97114
-0.00269875,1.97114
-0.0026975,1.97147
-0.00269625,1.97114
-0.002695,1.97114
-0.00269375,1.97114
-0.0026925,1.97114
-0.00269125,1.97114
-0.00269,1.9708
-0.00268875,1.9708
-0.0026875,1.97147
-0.00268625,1.97147
-0.002685,1.97147
-0.00268375,1.9708
-0.0026825,1.9708
-0.00268125,1.9708
-0.00268,1.97114
-0.00267875,1.97114
-0.0026775,1.9708
-0.00267625,1.97114
-0.002675,1.9708
-0.00267375,1.97114
-0.0026725,1.97114
-0.00267125,1.9708
-0.00267,1.97114
-0.00266875,1.97114
-0.0026675,1.97114
-0.00266625,1.97114
-0.002665,1.97147
-0.00266375,1.97114
-0.0026625,1.97147
-0.00266125,1.97114
-0.00266,1.9708
-0.00265875,1.97114
-0.0026575,1.9708
-0.00265625,1.9708
-0.002655,1.97114
-0.00265375,1.9708
-0.0026525,1.9708
-0.00265125,1.9708
-0.00265,1.97114
-0.00264875,1.9708
-0.0026475,1.9708
-0.00264625,1.97114
-0.002645,1.97047
-0.00264375,1.9708
-0.0026425,1.9708
-0.00264125,1.97114
-0.00264,1.9708
-0.00263875,1.97047
-0.0026375,1.97047
-0.00263625,1.97114
-0.002635,1.97114
-0.00263375,1.9708
-0.0026325,1.9708
-0.00263125,1.9708
-0.00263,1.97047
-0.00262875,1.97047
-0.0026275,1.97013
-0.00262625,1.97047
-0.002625,1.9708
-0.00262375,1.9708
-0.0026225,1.9708
-0.00262125,1.97047
-0.00262,1.9708
-0.00261875,1.9708
-0.0026175,1.97047
-0.00261625,1.97047
-0.002615,1.97114
-0.00261375,1.97114
-0.0026125,1.9708
-0.00261125,1.97114
-0.00261,1.97114
-0.00260875,1.97114
-0.0026075,1.9708
-0.00260625,1.97114
-0.002605,1.97114
-0.00260375,1.9708
-0.0026025,1.9708
-0.00260125,1.9708
-0.0026,1.97114
-0.00259875,1.9708
-0.0025975,1.9708
-0.00259625,1.97114
-0.002595,1.9708
-0.00259375,1.9708
-0.0025925,1.9708
-0.00259125,1.9708
-0.00259,1.9708
-0.00258875,1.9708
-0.0025875,1.9708
-0.00258625,1.9708
-0.002585,1.97047
-0.00258375,1.9708
-0.0025825,1.97047
-0.00258125,1.9708
-0.00258,1.97114
-0.00257875,1.9708
-0.0025775,1.9708
-0.00257625,1.9708
-0.002575,1.97047
-0.00257375,1.97047
-0.0025725,1.97047
-0.00257125,1.97047
-0.00257,1.9708
-0.00256875,1.9708
-0.0025675,1.97114
-0.00256625,1.97047
-0.002565,1.97047
-0.00256375,1.97114
-0.0025625,1.9708
-0.00256125,1.9708
-0.00256,1.97047
-0.00255875,1.97047
-0.0025575,1.9708
-0.00255625,1.9708
-0.002555,1.97047
-0.00255375,1.97047
-0.0025525,1.97047
-0.00255125,1.9708
-0.00255,1.9708
-0.00254875,1.97013
-0.0025475,1.97047
-0.00254625,1.97047
-0.002545,1.97114
-0.00254375,1.97114
-0.0025425,1.97114
-0.00254125,1.97147
-0.00254,1.97114
-0.00253875,1.97114
-0.0025375,1.97114
-0.00253625,1.97114
-0.002535,1.97114
-0.00253375,1.97114
-0.0025325,1.9708
-0.00253125,1.97114
-0.00253,1.9708
-0.00252875,1.97114
-0.0025275,1.9708
-0.00252625,1.97114
-0.002525,1.97147
-0.00252375,1.97114
-0.0025225,1.97114
-0.00252125,1.97114
-0.00252,1.97114
-0.00251875,1.9708
-0.0025175,1.9708
-0.00251625,1.97114
-0.002515,1.9708
-0.00251375,1.97047
-0.0025125,1.9708
-0.00251125,1.97114
-0.00251,1.9708
-0.00250875,1.97114
-0.0025075,1.9708
-0.00250625,1.97114
-0.002505,1.97114
-0.00250375,1.97114
-0.0025025,1.97114
-0.00250125,1.9708
-0.0025,1.97114
-0.00249875,1.97114
-0.0024975,1.97114
-0.00249625,1.9708
-0.002495,1.9708
-0.00249375,1.9708
-0.0024925,1.9708
-0.00249125,1.9708
-0.00249,1.97114
-0.00248875,1.97147
-0.0024875,1.97114
-0.00248625,1.97114
-0.002485,1.97114
-0.00248375,1.9708
-0.0024825,1.9708
-0.00248125,1.9708
-0.00248,1.97114
-0.00247875,1.97114
-0.0024775,1.97114
-0.00247625,1.97114
-0.002475,1.97114
-0.00247375,1.97147
-0.0024725,1.97114
-0.00247125,1.97114
-0.00247,1.97114
-0.00246875,1.97114
-0.0024675,1.97114
-0.00246625,1.97114
-0.002465,1.97147
-0.00246375,1.97114
-0.0024625,1.97114
-0.00246125,1.97114
-0.00246,1.97114
-0.00245875,1.9708
-0.0024575,1.97114
-0.00245625,1.97114
-0.002455,1.97114
-0.00245375,1.97114
-0.0024525,1.97114
-0.00245125,1.97147
-0.00245,1.97147
-0.00244875,1.97114
-0.0024475,1.97147
-0.00244625,1.97147
-0.002445,1.97147
-0.00244375,1.97147
-0.0024425,1.97147
-0.00244125,1.97114
-0.00244,1.9708
-0.00243875,1.97114
-0.0024375,1.97114
-0.00243625,1.97147
-0.002435,1.97114
-0.00243375,1.97114
-0.0024325,1.97147
-0.00243125,1.97147
-0.00243,1.97147
-0.00242875,1.97181
-0.0024275,1.97147
-0.00242625,1.97147
-0.002425,1.97114
-0.00242375,1.97147
-0.0024225,1.97114
-0.00242125,1.9708
-0.00242,1.9708
-0.00241875,1.97114
-0.0024175,1.97114
-0.00241625,1.97114
-0.002415,1.97147
-0.00241375,1.97181
-0.0024125,1.97114
-0.00241125,1.97147
-0.00241,1.97181
-0.00240875,1.97114
-0.0024075,1.97147
-0.00240625,1.97147
-0.002405,1.9708
-0.00240375,1.97147
-0.0024025,1.97181
-0.00240125,1.97181
-0.0024,1.97181
-0.00239875,1.97147
-0.0023975,1.97181
-0.00239625,1.97147
-0.002395,1.97147
-0.00239375,1.97147
-0.0023925,1.97147
-0.00239125,1.97181
-0.00239,1.97147
-0.00238875,1.97147
-0.0023875,1.97114
-0.00238625,1.97181
-0.002385,1.97181
-0.00238375,1.97114
-0.0023825,1.97147
-0.00238125,1.97147
-0.00238,1.9708
-0.00237875,1.9708
-0.0023775,1.97181
-0.00237625,1.97181
-0.002375,1.97181
-0.00237375,1.97181
-0.0023725,1.97181
-0.00237125,1.97114
-0.00237,1.97114
-0.00236875,1.9708
-0.0023675,1.97114
-0.00236625,1.97147
-0.002365,1.97147
-0.00236375,1.97147
-0.0023625,1.97114
-0.00236125,1.97114
-0.00236,1.97114
-0.00235875,1.97147
-0.0023575,1.97147
-0.00235625,1.97147
-0.002355,1.97147
-0.00235375,1.97114
-0.0023525,1.97114
-0.00235125,1.97114
-0.00235,1.97147
-0.00234875,1.97114
-0.0023475,1.97114
-0.00234625,1.97114
-0.002345,1.97147
-0.00234375,1.97114
-0.0023425,1.97114
-0.00234125,1.97114
-0.00234,1.97114
-0.00233875,1.9708
-0.0023375,1.97047
-0.00233625,1.97047
-0.002335,1.9708
-0.00233375,1.97114
-0.0023325,1.9708
-0.00233125,1.97047
-0.00233,1.9708
-0.00232875,1.97114
-0.0023275,1.9708
-0.00232625,1.9708
-0.002325,1.97047
-0.00232375,1.97047
-0.0023225,1.9708
-0.00232125,1.97114
-0.00232,1.97047
-0.00231875,1.9708
-0.0023175,1.9708
-0.00231625,1.97047
-0.002315,1.9708
-0.00231375,1.97047
-0.0023125,1.9708
-0.00231125,1.9708
-0.00231,1.9708
-0.00230875,1.97047
-0.0023075,1.97047
-0.00230625,1.9708
-0.002305,1.9708
-0.00230375,1.9708
-0.0023025,1.9708
-0.00230125,1.9708
-0.0023,1.97114
-0.00229875,1.9708
-0.0022975,1.97047
-0.00229625,1.9708
-0.002295,1.9708
-0.00229375,1.97047
-0.0022925,1.9708
-0.00229125,1.97114
-0.00229,1.97047
-0.00228875,1.97047
-0.0022875,1.9708
-0.00228625,1.97114
-0.002285,1.9708
-0.00228375,1.9708
-0.0022825,1.9708
-0.00228125,1.9708
-0.00228,1.9708
-0.00227875,1.9708
-0.0022775,1.9708
-0.00227625,1.9708
-0.002275,1.97114
-0.00227375,1.97114
-0.0022725,1.9708
-0.00227125,1.97114
-0.00227,1.9708
-0.00226875,1.9708
-0.0022675,1.97114
-0.00226625,1.97114
-0.002265,1.97114
-0.00226375,1.97114
-0.0022625,1.97147
-0.00226125,1.97114
-0.00226,1.97114
-0.00225875,1.97114
-0.0022575,1.97114
-0.00225625,1.97114
-0.002255,1.97114
-0.00225375,1.97147
-0.0022525,1.97114
-0.00225125,1.97147
-0.00225,1.97147
-0.00224875,1.97114
-0.0022475,1.97181
-0.00224625,1.97147
-0.002245,1.97181
-0.00224375,1.97147
-0.0022425,1.97114
-0.00224125,1.97114
-0.00224,1.9708
-0.00223875,1.9708
-0.0022375,1.97114
-0.00223625,1.97114
-0.002235,1.97147
-0.00223375,1.97147
-0.0022325,1.97114
-0.00223125,1.97147
-0.00223,1.97114
-0.00222875,1.97147
-0.0022275,1.97147
-0.00222625,1.97114
-0.002225,1.97114
-0.00222375,1.97147
-0.0022225,1.9708
-0.00222125,1.9708
-0.00222,1.9708
-0.00221875,1.9708
-0.0022175,1.9708
-0.00221625,1.9708
-0.002215,1.9708
-0.00221375,1.97114
-0.0022125,1.97147
-0.00221125,1.97147
-0.00221,1.9708
-0.00220875,1.97114
-0.0022075,1.97114
-0.00220625,1.97114
-0.002205,1.97147
-0.00220375,1.97114
-0.0022025,1.9708
-0.00220125,1.97147
-0.0022,1.97114
-0.00219875,1.9708
-0.0021975,1.97047
-0.00219625,1.97114
-0.002195,1.97114
-0.00219375,1.9708
-0.0021925,1.97114
-0.00219125,1.97114
-0.00219,1.97047
-0.00218875,1.9708
-0.0021875,1.97114
-0.00218625,1.97147
-0.002185,1.97147
-0.00218375,1.97114
-0.0021825,1.97114
-0.00218125,1.97147
-0.00218,1.97147
-0.00217875,1.97147
-0.0021775,1.97114
-0.00217625,1.97147
-0.002175,1.97181
-0.00217375,1.97147
-0.0021725,1.97114
-0.00217125,1.97114
-0.00217,1.97114
-0.00216875,1.97114
-0.0021675,1.97114
-0.00216625,1.97114
-0.002165,1.97114
-0.00216375,1.9708
-0.0021625,1.97114
-0.00216125,1.9708
-0.00216,1.97114
-0.00215875,1.97147
-0.0021575,1.97114
-0.00215625,1.97114
-0.002155,1.97114
-0.00215375,1.97147
-0.0021525,1.97114
-0.00215125,1.97147
-0.00215,1.97147
-0.00214875,1.97147
-0.0021475,1.97114
-0.00214625,1.97114
-0.002145,1.97114
-0.00214375,1.97114
-0.0021425,1.97114
-0.00214125,1.97114
-0.00214,1.9708
-0.00213875,1.97147
-0.0021375,1.97114
-0.00213625,1.97114
-0.002135,1.97147
-0.00213375,1.97114
-0.0021325,1.9708
-0.00213125,1.97114
-0.00213,1.9708
-0.00212875,1.9708
-0.0021275,1.9708
-0.00212625,1.9708
-0.002125,1.97013
-0.00212375,1.9708
-0.0021225,1.97047
-0.00212125,1.9708
-0.00212,1.9708
-0.00211875,1.97114
-0.0021175,1.97114
-0.00211625,1.97047
-0.002115,1.97114
-0.00211375,1.9708
-0.0021125,1.9708
-0.00211125,1.9708
-0.00211,1.97114
-0.00210875,1.97114
-0.0021075,1.9708
-0.00210625,1.9708
-0.002105,1.97114
-0.00210375,1.9708
-0.0021025,1.9708
-0.00210125,1.9708
-0.0021,1.9708
-0.00209875,1.97114
-0.0020975,1.97114
-0.00209625,1.97114
-0.002095,1.97114
-0.00209375,1.97114
-0.0020925,1.97114
-0.00209125,1.9708
-0.00209,1.97114
-0.00208875,1.97114
-0.0020875,1.97114
-0.00208625,1.97114
-0.002085,1.97114
-0.00208375,1.9708
-0.0020825,1.9708
-0.00208125,1.97114
-0.00208,1.9708
-0.00207875,1.9708
-0.0020775,1.9708
-0.00207625,1.97114
-0.002075,1.9708
-0.00207375,1.9708
-0.0020725,1.9708
-0.00207125,1.97047
-0.00207,1.97047
-0.00206875,1.97047
-0.0020675,1.9708
-0.00206625,1.9708
-0.002065,1.9708
-0.00206375,1.9708
-0.0020625,1.9708
-0.00206125,1.9708
-0.00206,1.9708
-0.00205875,1.9708
-0.0020575,1.97047
-0.00205625,1.97047
-0.002055,1.9708
-0.00205375,1.9708
-0.0020525,1.97047
-0.00205125,1.97047
-0.00205,1.9708
-0.00204875,1.9708
-0.0020475,1.9708
-0.00204625,1.9708
-0.002045,1.9708
-0.00204375,1.9708
-0.0020425,1.9708
-0.00204125,1.9708
-0.00204,1.97114
-0.00203875,1.9708
-0.0020375,1.97047
-0.00203625,1.97047
-0.002035,1.9708
-0.00203375,1.9708
-0.0020325,1.9708
-0.00203125,1.97047
-0.00203,1.97047
-0.00202875,1.97047
-0.0020275,1.9708
-0.00202625,1.97047
-0.002025,1.9708
-0.00202375,1.97047
-0.0020225,1.9708
-0.00202125,1.9708
-0.00202,1.97114
-0.00201875,1.97114
-0.0020175,1.9708
-0.00201625,1.9708
-0.002015,1.9708
-0.00201375,1.97047
-0.0020125,1.9708
-0.00201125,1.9708
-0.00201,1.9708
-0.00200875,1.97114
-0.0020075,1.97114
-0.00200625,1.97114
-0.002005,1.9708
-0.00200375,1.9708
-0.0020025,1.9708
-0.00200125,1.98156
-0.002,2.00409
-0.00199875,2.00846
-0.0019975,2.01283
-0.00199625,2.0172
-0.001995,2.02292
-0.00199375,2.02796
-0.0019925,2.03368
-0.00199125,2.0394
-0.00199,2.04511
-0.00198875,2.05184
-0.0019875,2.05722
-0.00198625,2.06394
-0.001985,2.07134
-0.00198375,2.07705
-0.0019825,2.08378
-0.00198125,2.0905
-0.00198,2.09723
-0.00197875,2.10328
-0.0019775,2.11001
-0.00197625,2.1174
-0.001975,2.12413
-0.00197375,2.13052
-0.0019725,2.13859
-0.00197125,2.14565
-0.00197,2.15237
-0.00196875,2.1591
-0.0019675,2.16683
-0.00196625,2.17356
-0.001965,2.18095
-0.00196375,2.18802
-0.0019625,2.19575
-0.00196125,2.20315
-0.00196,2.20987
-0.00195875,2.21761
-0.0019575,2.22534
-0.00195625,2.2324
-0.001955,2.23946
-0.00195375,2.24652
-0.0019525,2.25358
-0.00195125,2.26098
-0.00195,2.26872
-0.00194875,2.27578
-0.0019475,2.28385
-0.00194625,2.29057
-0.001945,2.29797
-0.00194375,2.30537
-0.0019425,2.31276
-0.00194125,2.31982
-0.00194,2.32722
-0.00193875,2.33428
-0.0019375,2.34168
-0.00193625,2.34908
-0.001935,2.35614
-0.00193375,2.3632
-0.0019325,2.3706
-0.00193125,2.37799
-0.00193,2.38506
-0.00192875,2.39245
-0.0019275,2.39951
-0.00192625,2.40624
-0.001925,2.4133
-0.00192375,2.4207
-0.0019225,2.42843
-0.00192125,2.43549
-0.00192,2.44255
-0.00191875,2.44962
-0.0019175,2.45668
-0.00191625,2.46374
-0.001915,2.4708
-0.00191375,2.47786
-0.0019125,2.48492
-0.00191125,2.49198
-0.00191,2.49871
-0.00190875,2.5061
-0.0019075,2.51283
-0.00190625,2.51989
-0.001905,2.52695
-0.00190375,2.53435
-0.0019025,2.54141
-0.00190125,2.54814
-0.0019,2.55452
-0.00189875,2.56159
-0.0018975,2.56932
-0.00189625,2.57571
-0.001895,2.58243
-0.00189375,2.59017
-0.0018925,2.59723
-0.00189125,2.60362
-0.00189,2.61034
-0.00188875,2.61774
-0.0018875,2.62446
-0.00188625,2.63152
-0.001885,2.63825
-0.00188375,2.64497
-0.0018825,2.65237
-0.00188125,2.65876
-0.00188,2.66616
-0.00187875,2.67322
-0.0018775,2.68028
-0.00187625,2.68667
-0.001875,2.69339
-0.00187375,2.70012
-0.0018725,2.70651
-0.00187125,2.71357
-0.00187,2.72097
-0.00186875,2.72702
-0.0018675,2.73374
-0.00186625,2.74047
-0.001865,2.74753
-0.00186375,2.75459
-0.0018625,2.76098
-0.00186125,2.76737
-0.00186,2.77376
-0.00185875,2.78082
-0.0018575,2.78721
-0.00185625,2.79359
-0.001855,2.79998
-0.00185375,2.80704
-0.0018525,2.81377
-0.00185125,2.82016
-0.00185,2.82722
-0.00184875,2.83327
-0.0018475,2.83966
-0.00184625,2.84672
-0.001845,2.85311
-0.00184375,2.85984
-0.0018425,2.86622
-0.00184125,2.87228
-0.00184,2.879
-0.00183875,2.88606
-0.0018375,2.89245
-0.00183625,2.89783
-0.001835,2.90456
-0.00183375,2.91162
-0.0018325,2.91767
-0.00183125,2.92372
-0.00183,2.93045
-0.00182875,2.93717
-0.0018275,2.94356
-0.00182625,2.94928
-0.001825,2.95567
-0.00182375,2.96205
-0.0018225,2.96878
-0.00182125,2.97517
-0.00182,2.98156
-0.00181875,2.98761
-0.0018175,2.99366
-0.00181625,3.00039
-0.001815,3.00644
-0.00181375,3.01249
-0.0018125,3.01854
-0.00181125,3.02527
-0.00181,3.03199
-0.00180875,3.03805
-0.0018075,3.04443
-0.00180625,3.05049
-0.001805,3.05688
-0.00180375,3.0636
-0.0018025,3.06898
-0.00180125,3.07537
-0.0018,3.08142
-0.00179875,3.08747
-0.0017975,3.09353
-0.00179625,3.09958
-0.001795,3.10597
-0.00179375,3.11202
-0.0017925,3.11807
-0.00179125,3.12412
-0.00179,3.12984
-0.00178875,3.13657
-0.0017875,3.14262
-0.00178625,3.14833
-0.001785,3.15472
-0.00178375,3.16078
-0.0017825,3.16649
-0.00178125,3.17254
-0.00178,3.17826
-0.00177875,3.18465
-0.0017775,3.19104
-0.00177625,3.19642
-0.001775,3.20247
-0.00177375,3.20852
-0.0017725,3.21491
-0.00177125,3.22029
-0.00177,3.22601
-0.00176875,3.23172
-0.0017675,3.23744
-0.00176625,3.24349
-0.001765,3.24921
-0.00176375,3.2556
-0.0017625,3.26198
-0.00176125,3.26736
-0.00176,3.27308
-0.00175875,3.27913
-0.0017575,3.28451
-0.00175625,3.29057
-0.001755,3.29628
-0.00175375,3.302
-0.0017525,3.30805
-0.00175125,3.31343
-0.00175,3.31982
-0.00174875,3.3252
-0.0017475,3.33092
-0.00174625,3.33697
-0.001745,3.34235
-0.00174375,3.34806
-0.0017425,3.35412
-0.00174125,3.35916
-0.00174,3.36521
-0.00173875,3.37093
-0.0017375,3.37631
-0.00173625,3.38202
-0.001735,3.3874
-0.00173375,3.39312
-0.0017325,3.39917
-0.00173125,3.40455
-0.00173,3.41027
-0.00172875,3.41632
-0.0017275,3.4217
-0.00172625,3.42708
-0.001725,3.43313
-0.00172375,3.43818
-0.0017225,3.44356
-0.00172125,3.44961
-0.00172,3.45499
-0.00171875,3.46037
-0.0017175,3.46575
-0.00171625,3.47147
-0.001715,3.47651
-0.00171375,3.48256
-0.0017125,3.48761
-0.00171125,3.49366
-0.00171,3.49837
-0.00170875,3.50408
-0.0017075,3.5098
-0.00170625,3.51551
-0.001705,3.52089
-0.00170375,3.52627
-0.0017025,3.53165
-0.00170125,3.5367
-0.0017,3.54208
-0.00169875,3.54746
-0.0016975,3.55317
-0.00169625,3.55855
-0.001695,3.5636
-0.00169375,3.56898
-0.0016925,3.57436
-0.00169125,3.5794
-0.00169,3.58411
-0.00168875,3.58982
-0.0016875,3.59588
-0.00168625,3.60092
-0.001685,3.60596
-0.00168375,3.61101
-0.0016825,3.61639
-0.00168125,3.62143
-0.00168,3.62648
-0.00167875,3.63253
-0.0016775,3.63757
-0.00167625,3.64262
-0.001675,3.64766
-0.00167375,3.65304
-0.0016725,3.65808
-0.00167125,3.66346
-0.00167,3.66817
-0.00166875,3.67288
-0.0016675,3.67859
-0.00166625,3.6833
-0.001665,3.68834
-0.00166375,3.69372
-0.0016625,3.69944
-0.00166125,3.70448
-0.00166,3.70919
-0.00165875,3.71457
-0.0016575,3.71962
-0.00165625,3.72432
-0.001655,3.7297
-0.00165375,3.73441
-0.0016525,3.73945
-0.00165125,3.74483
-0.00165,3.74988
-0.00164875,3.75425
-0.0016475,3.75929
-0.00164625,3.76434
-0.001645,3.76972
-0.00164375,3.77442
-0.0016425,3.77913
-0.00164125,3.78417
-0.00164,3.78922
-0.00163875,3.79426
-0.0016375,3.79863
-0.00163625,3.80435
-0.001635,3.80939
-0.00163375,3.81444
-0.0016325,3.81881
-0.00163125,3.82352
-0.00163,3.82822
-0.00162875,3.83327
-0.0016275,3.83797
-0.00162625,3.84302
-0.001625,3.84773
-0.00162375,3.85243
-0.0016225,3.85748
-0.00162125,3.86218
-0.00162,3.86756
-0.00161875,3.87193
-0.0016175,3.87664
-0.00161625,3.88169
-0.001615,3.88639
-0.00161375,3.89076
-0.0016125,3.89614
-0.00161125,3.90085
-0.00161,3.90522
-0.00160875,3.90993
-0.0016075,3.91397
-0.00160625,3.91834
-0.001605,3.92338
-0.00160375,3.92809
-0.0016025,3.93313
-0.00160125,3.93717
-0.0016,3.94154
-0.00159875,3.94557
-0.0015975,3.95095
-0.00159625,3.95465
-0.001595,3.95936
-0.00159375,3.9644
-0.0015925,3.96776
-0.00159125,3.9718
-0.00159,3.97617
-0.00158875,3.98054
-0.0015875,3.98458
-0.00158625,3.98861
-0.001585,3.99231
-0.00158375,3.99635
-0.0015825,4.00004
-0.00158125,4.00374
-0.00158,4.00744
-0.00157875,4.01047
-0.0015775,4.01484
-0.00157625,4.01887
-0.001575,4.0219
-0.00157375,4.02291
-0.0015725,4.02056
-0.00157125,4.01551
-0.00157,4.0098
-0.00156875,4.00374
-0.0015675,3.99803
-0.00156625,3.99231
-0.001565,3.98794
-0.00156375,3.98323
-0.0015625,3.97886
-0.00156125,3.9755
-0.00156,3.97214
-0.00155875,3.96945
-0.0015575,3.96709
-0.00155625,3.9644
-0.001555,3.96272
-0.00155375,3.96138
-0.0015525,3.96003
-0.00155125,3.95902
-0.00155,3.95801
-0.00154875,3.957
-0.0015475,3.95633
-0.00154625,3.95532
-0.001545,3.95532
-0.00154375,3.95499
-0.0015425,3.95499
-0.00154125,3.95465
-0.00154,3.95465
-0.00153875,3.95431
-0.0015375,3.95398
-0.00153625,3.95398
-0.001535,3.95364
-0.00153375,3.95398
-0.0015325,3.95431
-0.00153125,3.95398
-0.00153,3.95431
-0.00152875,3.95431
-0.0015275,3.95431
-0.00152625,3.95431
-0.001525,3.95465
-0.00152375,3.95499
-0.0015225,3.95499
-0.00152125,3.95499
-0.00152,3.95532
-0.00151875,3.95499
-0.0015175,3.95465
-0.00151625,3.95499
-0.001515,3.95499
-0.00151375,3.95499
-0.0015125,3.95499
-0.00151125,3.95532
-0.00151,3.95499
-0.00150875,3.95532
-0.0015075,3.95532
-0.00150625,3.95532
-0.001505,3.95499
-0.00150375,3.95499
-0.0015025,3.95499
-0.00150125,3.95532
-0.0015,3.95532
-0.00149875,3.95499
-0.0014975,3.95532
-0.00149625,3.95499
-0.001495,3.95499
-0.00149375,3.95532
-0.0014925,3.95532
-0.00149125,3.95465
-0.00149,3.95465
-0.00148875,3.95499
-0.0014875,3.95465
-0.00148625,3.95465
-0.001485,3.95465
-0.00148375,3.95465
-0.0014825,3.95465
-0.00148125,3.95465
-0.00148,3.95499
-0.00147875,3.95465
-0.0014775,3.95465
-0.00147625,3.95499
-0.001475,3.95499
-0.00147375,3.95465
-0.0014725,3.95431
-0.00147125,3.95431
-0.00147,3.95431
-0.00146875,3.95465
-0.0014675,3.95465
-0.00146625,3.95499
-0.001465,3.95465
-0.00146375,3.95431
-0.0014625,3.95465
-0.00146125,3.95499
-0.00146,3.95431
-0.00145875,3.95465
-0.0014575,3.95465
-0.00145625,3.95465
-0.001455,3.95465
-0.00145375,3.95465
-0.0014525,3.95431
-0.00145125,3.95431
-0.00145,3.95465
-0.00144875,3.95465
-0.0014475,3.95499
-0.00144625,3.95431
-0.001445,3.95431
-0.00144375,3.95465
-0.0014425,3.95499
-0.00144125,3.95465
-0.00144,3.95465
-0.00143875,3.95465
-0.0014375,3.95398
-0.00143625,3.95431
-0.001435,3.95398
-0.00143375,3.95398
-0.0014325,3.95431
-0.00143125,3.95465
-0.00143,3.95465
-0.00142875,3.95431
-0.0014275,3.95431
-0.00142625,3.95398
-0.001425,3.95431
-0.00142375,3.95465
-0.0014225,3.95465
-0.00142125,3.95465
-0.00142,3.95431
-0.00141875,3.95364
-0.0014175,3.95398
-0.00141625,3.95398
-0.001415,3.95431
-0.00141375,3.95431
-0.0014125,3.95398
-0.00141125,3.95431
-0.00141,3.95431
-0.00140875,3.95499
-0.0014075,3.95499
-0.00140625,3.95465
-0.001405,3.95431
-0.00140375,3.95431
-0.0014025,3.95465
-0.00140125,3.95465
-0.0014,3.95431
-0.00139875,3.95398
-0.0013975,3.95431
-0.00139625,3.95431
-0.001395,3.95465
-0.00139375,3.95431
-0.0013925,3.95431
-0.00139125,3.95465
-0.00139,3.95431
-0.00138875,3.95465
-0.0013875,3.95431
-0.00138625,3.95499
-0.001385,3.95465
-0.00138375,3.95431
-0.0013825,3.95431
-0.00138125,3.95398
-0.00138,3.95398
-0.00137875,3.95431
-0.0013775,3.95465
-0.00137625,3.95431
-0.001375,3.95398
-0.00137375,3.95398
-0.0013725,3.95398
-0.00137125,3.95398
-0.00137,3.95431
-0.00136875,3.95465
-0.0013675,3.95465
-0.00136625,3.95431
-0.001365,3.95465
-0.00136375,3.95431
-0.0013625,3.95398
-0.00136125,3.95431
-0.00136,3.95398
-0.00135875,3.95398
-0.0013575,3.95431
-0.00135625,3.95431
-0.001355,3.95431
-0.00135375,3.95398
-0.0013525,3.95398
-0.00135125,3.95364
-0.00135,3.95364
-0.00134875,3.95364
-0.0013475,3.95364
-0.00134625,3.95364
-0.001345,3.95364
-0.00134375,3.95364
-0.0013425,3.95331
-0.00134125,3.95364
-0.00134,3.95398
-0.00133875,3.95364
-0.0013375,3.95364
-0.00133625,3.95398
-0.001335,3.95398
-0.00133375,3.95398
-0.0013325,3.95398
-0.00133125,3.95364
-0.00133,3.95431
-0.00132875,3.95398
-0.0013275,3.95364
-0.00132625,3.95331
-0.001325,3.95331
-0.00132375,3.95364
-0.0013225,3.95364
-0.00132125,3.95331
-0.00132,3.95331
-0.00131875,3.95398
-0.0013175,3.95364
-0.00131625,3.95364
-0.001315,3.95398
-0.00131375,3.95364
-0.0013125,3.95364
-0.00131125,3.95398
-0.00131,3.95364
-0.00130875,3.95364
-0.0013075,3.95331
-0.00130625,3.95364
-0.001305,3.95364
-0.00130375,3.95398
-0.0013025,3.95398
-0.00130125,3.95398
-0.0013,3.95398
-0.00129875,3.95364
-0.0012975,3.95364
-0.00129625,3.95331
-0.001295,3.95431
-0.00129375,3.95398
-0.0012925,3.95364
-0.00129125,3.95364
-0.00129,3.95364
-0.00128875,3.95364
-0.0012875,3.95398
-0.00128625,3.95398
-0.001285,3.95331
-0.00128375,3.95364
-0.0012825,3.95331
-0.00128125,3.95364
-0.00128,3.95398
-0.00127875,3.95364
-0.0012775,3.95398
-0.00127625,3.95398
-0.001275,3.95364
-0.00127375,3.95331
-0.0012725,3.95331
-0.00127125,3.95331
-0.00127,3.95331
-0.00126875,3.95331
-0.0012675,3.95364
-0.00126625,3.95331
-0.001265,3.95364
-0.00126375,3.95398
-0.0012625,3.95431
-0.00126125,3.95398
-0.00126,3.95364
-0.00125875,3.95364
-0.0012575,3.95364
-0.00125625,3.95364
-0.001255,3.95331
-0.00125375,3.95331
-0.0012525,3.95364
-0.00125125,3.95398
-0.00125,3.95431
-0.00124875,3.95364
-0.0012475,3.95431
-0.00124625,3.95364
-0.001245,3.95398
-0.00124375,3.95431
-0.0012425,3.95364
-0.00124125,3.95331
-0.00124,3.95331
-0.00123875,3.95398
-0.0012375,3.95398
-0.00123625,3.95331
-0.001235,3.95398
-0.00123375,3.95398
-0.0012325,3.95364
-0.00123125,3.95364
-0.00123,3.95398
-0.00122875,3.95364
-0.0012275,3.95364
-0.00122625,3.95331
-0.001225,3.95364
-0.00122375,3.95364
-0.0012225,3.95364
-0.00122125,3.95364
-0.00122,3.95331
-0.00121875,3.95364
-0.0012175,3.95364
-0.00121625,3.95364
-0.001215,3.95331
-0.00121375,3.95297
-0.0012125,3.95331
-0.00121125,3.95297
-0.00121,3.95331
-0.00120875,3.95331
-0.0012075,3.95364
-0.00120625,3.95398
-0.001205,3.95331
-0.00120375,3.95331
-0.0012025,3.95331
-0.00120125,3.95364
-0.0012,3.95364
-0.00119875,3.95364
-0.0011975,3.95331
-0.00119625,3.95364
-0.001195,3.95364
-0.00119375,3.95297
-0.0011925,3.95364
-0.00119125,3.95331
-0.00119,3.95331
-0.00118875,3.95331
-0.0011875,3.95331
-0.00118625,3.95331
-0.001185,3.95331
-0.00118375,3.95364
-0.0011825,3.95331
-0.00118125,3.95331
-0.00118,3.95331
-0.00117875,3.95297
-0.0011775,3.95297
-0.00117625,3.95297
-0.001175,3.95297
-0.00117375,3.95297
-0.0011725,3.95331
-0.00117125,3.95331
-0.00117,3.95297
-0.00116875,3.95331
-0.0011675,3.95364
-0.00116625,3.95364
-0.001165,3.95364
-0.00116375,3.95364
-0.0011625,3.95331
-0.00116125,3.95364
-0.00116,3.95364
-0.00115875,3.95398
-0.0011575,3.95364
-0.00115625,3.95398
-0.001155,3.95364
-0.00115375,3.95364
-0.0011525,3.95364
-0.00115125,3.95331
-0.00115,3.95364
-0.00114875,3.95331
-0.0011475,3.95297
-0.00114625,3.95398
-0.001145,3.95364
-0.00114375,3.95331
-0.0011425,3.95331
-0.00114125,3.95331
-0.00114,3.95364
-0.00113875,3.95364
-0.0011375,3.95364
-0.00113625,3.95364
-0.001135,3.95398
-0.00113375,3.95364
-0.0011325,3.95331
-0.00113125,3.95331
-0.00113,3.95364
-0.00112875,3.95398
-0.0011275,3.95331
-0.00112625,3.95364
-0.001125,3.95398
-0.00112375,3.95398
-0.0011225,3.95364
-0.00112125,3.95331
-0.00112,3.95364
-0.00111875,3.95398
-0.0011175,3.95331
-0.00111625,3.95331
-0.001115,3.95431
-0.00111375,3.95431
-0.0011125,3.95364
-0.00111125,3.95297
-0.00111,3.95364
-0.00110875,3.95364
-0.0011075,3.95331
-0.00110625,3.95331
-0.001105,3.95297
-0.00110375,3.95331
-0.0011025,3.95331
-0.00110125,3.95331
-0.0011,3.95364
-0.00109875,3.95364
-0.0010975,3.95331
-0.00109625,3.95331
-0.001095,3.95331
-0.00109375,3.95331
-0.0010925,3.95364
-0.00109125,3.95297
-0.00109,3.95297
-0.00108875,3.95331
-0.0010875,3.95331
-0.00108625,3.95331
-0.001085,3.95364
-0.00108375,3.95331
-0.0010825,3.95331
-0.00108125,3.95331
-0.00108,3.95364
-0.00107875,3.95331
-0.0010775,3.95331
-0.00107625,3.95331
-0.001075,3.95364
-0.00107375,3.95364
-0.0010725,3.95297
-0.00107125,3.95297
-0.00107,3.95331
-0.00106875,3.95331
-0.0010675,3.95297
-0.00106625,3.95297
-0.001065,3.95331
-0.00106375,3.95331
-0.0010625,3.95297
-0.00106125,3.95364
-0.00106,3.95331
-0.00105875,3.95297
-0.0010575,3.95297
-0.00105625,3.95297
-0.001055,3.95297
-0.00105375,3.95263
-0.0010525,3.95297
-0.00105125,3.95297
-0.00105,3.95263
-0.00104875,3.95297
-0.0010475,3.95364
-0.00104625,3.95364
-0.001045,3.95364
-0.00104375,3.95297
-0.0010425,3.95331
-0.00104125,3.95364
-0.00104,3.95364
-0.00103875,3.95331
-0.0010375,3.95331
-0.00103625,3.95331
-0.001035,3.95364
-0.00103375,3.95398
-0.0010325,3.95398
-0.00103125,3.95364
-0.00103,3.95331
-0.00102875,3.95398
-0.0010275,3.95364
-0.00102625,3.95364
-0.001025,3.95331
-0.00102375,3.95297
-0.0010225,3.95331
-0.00102125,3.95331
-0.00102,3.95364
-0.00101875,3.95398
-0.0010175,3.95331
-0.00101625,3.95331
-0.001015,3.95398
-0.00101375,3.95398
-0.0010125,3.95364
-0.00101125,3.95331
-0.00101,3.95297
-0.00100875,3.95364
-0.0010075,3.95364
-0.00100625,3.95364
-0.001005,3.95398
-0.00100375,3.95398
-0.0010025,3.95431
-0.00100125,3.95331
-0.001,3.9328
-0.00099875,3.89177
-0.0009975,3.84974
-0.00099625,3.80872
-0.000995,3.76635
-0.00099375,3.72466
-0.0009925,3.6833
-0.00099125,3.64161
-0.00099,3.59958
-0.00098875,3.55855
-0.0009875,3.5172
-0.00098625,3.4755
-0.000985,3.43515
-0.00098375,3.39312
-0.0009825,3.35109
-0.00098125,3.31074
-0.00098,3.26972
-0.00097875,3.2287
-0.0009775,3.187
-0.00097625,3.14598
-0.000975,3.10529
-0.00097375,3.06494
-0.0009725,3.02426
-0.00097125,2.98324
-0.00097,2.94255
-0.00096875,2.90153
-0.0009675,2.86084
-0.00096625,2.82049
-0.000965,2.78014
-0.00096375,2.7398
-0.0009625,2.69978
-0.00096125,2.65943
-0.00096,2.61908
-0.00095875,2.57907
-0.0009575,2.53906
-0.00095625,2.49938
-0.000955,2.45937
-0.00095375,2.41969
-0.0009525,2.38035
-0.00095125,2.34101
-0.00095,2.30167
-0.00094875,2.263
-0.0009475,2.22568
-0.00094625,2.19071
-0.000945,2.15977
-0.00094375,2.13287
-0.0009425,2.10933
-0.00094125,2.08916
-0.00094,2.07168
-0.00093875,2.05722
-0.0009375,2.04478
-0.00093625,2.03435
-0.000935,2.02494
-0.00093375,2.01754
-0.0009325,2.01081
-0.00093125,2.00543
-0.00093,2.00039
-0.00092875,1.99568
-0.0009275,1.99266
-0.00092625,1.98963
-0.000925,1.98694
-0.00092375,1.98425
-0.0009225,1.98156
-0.00092125,1.98055
-0.00092,1.97921
-0.00091875,1.9782
-0.0009175,1.97685
-0.00091625,1.97585
-0.000915,1.97517
-0.00091375,1.97484
-0.0009125,1.97383
-0.00091125,1.97383
-0.00091,1.97349
-0.00090875,1.97316
-0.0009075,1.97248
-0.00090625,1.97248
-0.000905,1.97215
-0.00090375,1.97181
-0.0009025,1.97181
-0.00090125,1.97147
-0.0009,1.97181
-0.00089875,1.97147
-0.0008975,1.97147
-0.00089625,1.97147
-0.000895,1.97147
-0.00089375,1.97147
-0.0008925,1.97181
-0.00089125,1.97147
-0.00089,1.97147
-0.00088875,1.97181
-0.0008875,1.97147
-0.00088625,1.97114
-0.000885,1.97181
-0.00088375,1.97147
-0.0008825,1.97147
-0.00088125,1.97147
-0.00088,1.97114
-0.00087875,1.97147
-0.0008775,1.97114
-0.00087625,1.97147
-0.000875,1.97147
-0.00087375,1.97114
-0.0008725,1.97114
-0.00087125,1.97114
-0.00087,1.97114
-0.00086875,1.97147
-0.0008675,1.97147
-0.00086625,1.97114
-0.000865,1.97147
-0.00086375,1.97147
-0.0008625,1.97147
-0.00086125,1.97147
-0.00086,1.97114
-0.00085875,1.97114
-0.0008575,1.97147
-0.00085625,1.97114
-0.000855,1.9708
-0.00085375,1.97114
-0.0008525,1.97114
-0.00085125,1.97114
-0.00085,1.97114
-0.00084875,1.9708
-0.0008475,1.97114
-0.00084625,1.97114
-0.000845,1.97147
-0.00084375,1.97147
-0.0008425,1.97114
-0.00084125,1.9708
-0.00084,1.97114
-0.00083875,1.97114
-0.0008375,1.9708
-0.00083625,1.9708
-0.000835,1.9708
-0.00083375,1.97047
-0.0008325,1.9708
-0.00083125,1.97047
-0.00083,1.9708
-0.00082875,1.9708
-0.0008275,1.97013
-0.00082625,1.9708
-0.000825,1.97114
-0.00082375,1.97147
-0.0008225,1.97147
-0.00082125,1.97114
-0.00082,1.9708
-0.00081875,1.97114
-0.0008175,1.97114
-0.00081625,1.97114
-0.000815,1.97114
-0.00081375,1.9708
-0.0008125,1.9708
-0.00081125,1.97114
-0.00081,1.97114
-0.00080875,1.9708
-0.0008075,1.97114
-0.00080625,1.9708
-0.000805,1.9708
-0.00080375,1.97047
-0.0008025,1.97114
-0.00080125,1.97147
-0.0008,1.9708
-0.00079875,1.97114
-0.0007975,1.97147
-0.00079625,1.97114
-0.000795,1.97114
-0.00079375,1.97147
-0.0007925,1.97147
-0.00079125,1.97114
-0.00079,1.97114
-0.00078875,1.97147
-0.0007875,1.97147
-0.00078625,1.97147
-0.000785,1.97114
-0.00078375,1.97147
-0.0007825,1.97181
-0.00078125,1.97114
-0.00078,1.97147
-0.00077875,1.97114
-0.0007775,1.97181
-0.00077625,1.97147
-0.000775,1.9708
-0.00077375,1.97114
-0.0007725,1.97114
-0.00077125,1.97114
-0.00077,1.97181
-0.00076875,1.97147
-0.0007675,1.97114
-0.00076625,1.97147
-0.000765,1.97114
-0.00076375,1.97147
-0.0007625,1.97114
-0.00076125,1.97147
-0.00076,1.97147
-0.00075875,1.97147
-0.0007575,1.97114
-0.00075625,1.97114
-0.000755,1.97114
-0.00075375,1.97147
-0.0007525,1.97147
-0.00075125,1.97114
-0.00075,1.97147
-0.00074875,1.97114
-0.0007475,1.97147
-0.00074625,1.97114
-0.000745,1.97147
-0.00074375,1.97114
-0.0007425,1.97114
-0.00074125,1.97114
-0.00074,1.97147
-0.00073875,1.97147
-0.0007375,1.97147
-0.00073625,1.97147
-0.000735,1.97147
-0.00073375,1.97147
-0.0007325,1.97114
-0.00073125,1.9708
-0.00073,1.97114
-0.00072875,1.97147
-0.0007275,1.9708
-0.00072625,1.97114
-0.000725,1.97181
-0.00072375,1.97147
-0.0007225,1.97114
-0.00072125,1.97147
-0.00072,1.97181
-0.00071875,1.97181
-0.0007175,1.97181
-0.00071625,1.97147
-0.000715,1.97147
-0.00071375,1.97147
-0.0007125,1.97114
-0.00071125,1.97047
-0.00071,1.9708
-0.00070875,1.97114
-0.0007075,1.97147
-0.00070625,1.97114
-0.000705,1.9708
-0.00070375,1.97147
-0.0007025,1.97147
-0.00070125,1.97147
-0.0007,1.97114
-0.00069875,1.97114
-0.0006975,1.97147
-0.00069625,1.97147
-0.000695,1.97147
-0.00069375,1.9708
-0.0006925,1.97147
-0.00069125,1.97114
-0.00069,1.97047
-0.00068875,1.9708
-0.0006875,1.97114
-0.00068625,1.9708
-0.000685,1.9708
-0.00068375,1.97047
-0.0006825,1.97114
-0.00068125,1.97114
-0.00068,1.97114
-0.00067875,1.97114
-0.0006775,1.97114
-0.00067625,1.9708
-0.000675,1.97047
-0.00067375,1.97047
-0.0006725,1.9708
-0.00067125,1.9708
-0.00067,1.9708
-0.00066875,1.97147
-0.0006675,1.97114
-0.00066625,1.9708
-0.000665,1.9708
-0.00066375,1.97114
-0.0006625,1.9708
-0.00066125,1.97114
-0.00066,1.97114
-0.00065875,1.9708
-0.0006575,1.9708
-0.00065625,1.97047
-0.000655,1.97114
-0.00065375,1.9708
-0.0006525,1.9708
-0.00065125,1.97047
-0.00065,1.97114
-0.00064875,1.9708
-0.0006475,1.97114
-0.00064625,1.97114
-0.000645,1.9708
-0.00064375,1.97114
-0.0006425,1.9708
-0.00064125,1.9708
-0.00064,1.97147
-0.00063875,1.97114
-0.0006375,1.9708
-0.00063625,1.9708
-0.000635,1.9708
-0.00063375,1.9708
-0.0006325,1.97114
-0.00063125,1.9708
-0.00063,1.97047
-0.00062875,1.97047
-0.0006275,1.9708
-0.00062625,1.97114
-0.000625,1.97114
-0.00062375,1.9708
-0.0006225,1.97047
-0.00062125,1.9708
-0.00062,1.9708
-0.00061875,1.9708
-0.0006175,1.97114
-0.00061625,1.97047
-0.000615,1.9708
-0.00061375,1.97114
-0.0006125,1.97114
-0.00061125,1.97114
-0.00061,1.97114
-0.00060875,1.9708
-0.0006075,1.97047
-0.00060625,1.9708
-0.000605,1.97114
-0.00060375,1.9708
-0.0006025,1.97114
-0.00060125,1.97114
-0.0006,1.97114
-0.00059875,1.97114
-0.0005975,1.97114
-0.00059625,1.97114
-0.000595,1.97114
-0.00059375,1.97114
-0.0005925,1.97114
-0.00059125,1.97114
-0.00059,1.9708
-0.00058875,1.9708
-0.0005875,1.9708
-0.00058625,1.97114
-0.000585,1.97147
-0.00058375,1.9708
-0.0005825,1.97114
-0.00058125,1.97114
-0.00058,1.97114
-0.00057875,1.97114
-0.0005775,1.97114
-0.00057625,1.97114
-0.000575,1.97147
-0.00057375,1.97147
-0.0005725,1.97114
-0.00057125,1.97147
-0.00057,1.97147
-0.00056875,1.97114
-0.0005675,1.97114
-0.00056625,1.97114
-0.000565,1.97114
-0.00056375,1.97147
-0.0005625,1.97181
-0.00056125,1.97147
-0.00056,1.97147
-0.00055875,1.97114
-0.0005575,1.97114
-0.00055625,1.97114
-0.000555,1.97114
-0.00055375,1.9708
-0.0005525,1.97147
-0.00055125,1.97114
-0.00055,1.9708
-0.00054875,1.97114
-0.0005475,1.97114
-0.00054625,1.97147
-0.000545,1.97147
-0.00054375,1.97114
-0.0005425,1.9708
-0.00054125,1.97114
-0.00054,1.97147
-0.00053875,1.97114
-0.0005375,1.9708
-0.00053625,1.97114
-0.000535,1.97147
-0.00053375,1.97147
-0.0005325,1.97147
-0.00053125,1.97147
-0.00053,1.97147
-0.00052875,1.97114
-0.0005275,1.97114
-0.00052625,1.97147
-0.000525,1.97114
-0.00052375,1.97147
-0.0005225,1.97114
-0.00052125,1.9708
-0.00052,1.97147
-0.00051875,1.97147
-0.0005175,1.97114
-0.00051625,1.97114
-0.000515,1.97147
-0.00051375,1.97147
-0.0005125,1.97147
-0.00051125,1.97181
-0.00051,1.97147
-0.00050875,1.97147
-0.0005075,1.9708
-0.00050625,1.9708
-0.000505,1.9708
-0.00050375,1.97114
-0.0005025,1.97114
-0.00050125,1.9708
-0.0005,1.9708
-0.00049875,1.9708
-0.0004975,1.9708
-0.00049625,1.97114
-0.000495,1.97114
-0.00049375,1.97114
-0.0004925,1.97114
-0.00049125,1.97114
-0.00049,1.97147
-0.00048875,1.97147
-0.0004875,1.97114
-0.00048625,1.97114
-0.000485,1.9708
-0.00048375,1.9708
-0.0004825,1.97114
-0.00048125,1.97147
-0.00048,1.97147
-0.00047875,1.97181
-0.0004775,1.97114
-0.00047625,1.9708
-0.000475,1.97114
-0.00047375,1.97147
-0.0004725,1.9708
-0.00047125,1.9708
-0.00047,1.9708
-0.00046875,1.97114
-0.0004675,1.97147
-0.00046625,1.97147
-0.000465,1.97147
-0.00046375,1.97114
-0.0004625,1.97114
-0.00046125,1.97114
-0.00046,1.97047
-0.00045875,1.97047
-0.0004575,1.9708
-0.00045625,1.9708
-0.000455,1.97114
-0.00045375,1.97013
-0.0004525,1.97047
-0.00045125,1.97013
-0.00045,1.97047
-0.00044875,1.97047
-0.0004475,1.97114
-0.00044625,1.97047
-0.000445,1.9708
-0.00044375,1.97147
-0.0004425,1.9708
-0.00044125,1.9708
-0.00044,1.9708
-0.00043875,1.9708
-0.0004375,1.9708
-0.00043625,1.9708
-0.000435,1.9708
-0.00043375,1.9708
-0.0004325,1.97114
-0.00043125,1.9708
-0.00043,1.97047
-0.00042875,1.9708
-0.0004275,1.97114
-0.00042625,1.9708
-0.000425,1.9708
-0.00042375,1.97114
-0.0004225,1.9708
-0.00042125,1.97114
-0.00042,1.97147
-0.00041875,1.97147
-0.0004175,1.97147
-0.00041625,1.97181
-0.000415,1.97114
-0.00041375,1.9708
-0.0004125,1.9708
-0.00041125,1.9708
-0.00041,1.97047
-0.00040875,1.97114
-0.0004075,1.97114
-0.00040625,1.9708
-0.000405,1.97181
-0.00040375,1.97114
-0.0004025,1.97114
-0.00040125,1.97114
-0.0004,1.97147
-0.00039875,1.9708
-0.0003975,1.9708
-0.00039625,1.97114
-0.000395,1.97114
-0.00039375,1.97147
-0.0003925,1.97114
-0.00039125,1.97114
-0.00039,1.97114
-0.00038875,1.97114
-0.0003875,1.97181
-0.00038625,1.97114
-0.000385,1.97147
-0.00038375,1.97181
-0.0003825,1.97114
-0.00038125,1.9708
-0.00038,1.9708
-0.00037875,1.97114
-0.0003775,1.97114
-0.00037625,1.97114
-0.000375,1.9708
-0.00037375,1.9708
-0.0003725,1.9708
-0.00037125,1.9708
-0.00037,1.97114
-0.00036875,1.97114
-0.0003675,1.97114
-0.00036625,1.97147
-0.000365,1.97114
-0.00036375,1.9708
-0.0003625,1.97114
-0.00036125,1.97114
-0.00036,1.97114
-0.00035875,1.9708
-0.0003575,1.9708
-0.00035625,1.9708
-0.000355,1.97047
-0.00035375,1.9708
-0.0003525,1.9708
-0.00035125,1.9708
-0.00035,1.97047
-0.00034875,1.9708
-0.0003475,1.97114
-0.00034625,1.97147
-0.000345,1.97114
-0.00034375,1.97114
-0.0003425,1.97147
-0.00034125,1.97147
-0.00034,1.97114
-0.00033875,1.9708
-0.0003375,1.97114
-0.00033625,1.97114
-0.000335,1.9708
-0.00033375,1.9708
-0.0003325,1.9708
-0.00033125,1.9708
-0.00033,1.9708
-0.00032875,1.97114
-0.0003275,1.9708
-0.00032625,1.9708
-0.000325,1.9708
-0.00032375,1.97047
-0.0003225,1.9708
-0.00032125,1.9708
-0.00032,1.97114
-0.00031875,1.97114
-0.0003175,1.9708
-0.00031625,1.97114
-0.000315,1.9708
-0.00031375,1.9708
-0.0003125,1.9708
-0.00031125,1.97114
-0.00031,1.9708
-0.00030875,1.97114
-0.0003075,1.97047
-0.00030625,1.9708
-0.000305,1.97047
-0.00030375,1.97047
-0.0003025,1.9708
-0.00030125,1.9708
-0.0003,1.9708
-0.00029875,1.9708
-0.0002975,1.9708
-0.00029625,1.9708
-0.000295,1.9708
-0.00029375,1.9708
-0.0002925,1.97114
-0.00029125,1.97114
-0.00029,1.97147
-0.00028875,1.97147
-0.0002875,1.97114
-0.00028625,1.97114
-0.000285,1.97114
-0.00028375,1.97114
-0.0002825,1.9708
-0.00028125,1.9708
-0.00028,1.9708
-0.00027875,1.9708
-0.0002775,1.97114
-0.00027625,1.9708
-0.000275,1.97114
-0.00027375,1.97181
-0.0002725,1.97147
-0.00027125,1.97147
-0.00027,1.97114
-0.00026875,1.97147
-0.0002675,1.97147
-0.00026625,1.97147
-0.000265,1.97147
-0.00026375,1.9708
-0.0002625,1.9708
-0.00026125,1.97114
-0.00026,1.9708
-0.00025875,1.97114
-0.0002575,1.97147
-0.00025625,1.97114
-0.000255,1.97181
-0.00025375,1.97147
-0.0002525,1.97147
-0.00025125,1.97147
-0.00025,1.97147
-0.00024875,1.97147
-0.0002475,1.97147
-0.00024625,1.97147
-0.000245,1.97147
-0.00024375,1.97114
-0.0002425,1.97147
-0.00024125,1.97114
-0.00024,1.97114
-0.00023875,1.97147
-0.0002375,1.97147
-0.00023625,1.97114
-0.000235,1.97147
-0.00023375,1.97181
-0.0002325,1.97215
-0.00023125,1.97147
-0.00023,1.97147
-0.00022875,1.97147
-0.0002275,1.97181
-0.00022625,1.97181
-0.000225,1.97181
-0.00022375,1.97147
-0.0002225,1.97147
-0.00022125,1.97114
-0.00022,1.97114
-0.00021875,1.97114
-0.0002175,1.9708
-0.00021625,1.97114
-0.000215,1.97114
-0.00021375,1.9708
-0.0002125,1.97147
-0.00021125,1.97147
-0.00021,1.97147
-0.00020875,1.97114
-0.0002075,1.97114
-0.00020625,1.97147
-0.000205,1.97147
-0.00020375,1.97147
-0.0002025,1.97114
-0.00020125,1.97114
-0.0002,1.97114
-0.00019875,1.97114
-0.0001975,1.97114
-0.00019625,1.97114
-0.000195,1.97114
-0.00019375,1.97147
-0.0001925,1.97147
-0.00019125,1.97114
-0.00019,1.97114
-0.00018875,1.97114
-0.0001875,1.97147
-0.00018625,1.97114
-0.000185,1.9708
-0.00018375,1.97147
-0.0001825,1.97114
-0.00018125,1.97114
-0.00018,1.97114
-0.00017875,1.97114
-0.0001775,1.97147
-0.00017625,1.97114
-0.000175,1.97147
-0.00017375,1.9708
-0.0001725,1.97047
-0.00017125,1.97114
-0.00017,1.97114
-0.00016875,1.9708
-0.0001675,1.9708
-0.00016625,1.97114
-0.000165,1.97114
-0.00016375,1.97114
-0.0001625,1.97114
-0.00016125,1.9708
-0.00016,1.9708
-0.00015875,1.97047
-0.0001575,1.9708
-0.00015625,1.97114
-0.000155,1.97114
-0.00015375,1.97114
-0.0001525,1.97114
-0.00015125,1.97114
-0.00015,1.97114
-0.00014875,1.97114
-0.0001475,1.9708
-0.00014625,1.9708
-0.000145,1.97114
-0.00014375,1.97114
-0.0001425,1.9708
-0.00014125,1.9708
-0.00014,1.97114
-0.00013875,1.97114
-0.0001375,1.97147
-0.00013625,1.97114
-0.000135,1.9708
-0.00013375,1.97114
-0.0001325,1.97147
-0.00013125,1.97114
-0.00013,1.9708
-0.00012875,1.97114
-0.0001275,1.97114
-0.00012625,1.9708
-0.000125,1.9708
-0.00012375,1.9708
-0.0001225,1.97114
-0.00012125,1.9708
-0.00012,1.97114
-0.00011875,1.97147
-0.0001175,1.97147
-0.00011625,1.97114
-0.000115,1.9708
-0.00011375,1.97114
-0.0001125,1.97147
-0.00011125,1.97114
-0.00011,1.97147
-0.00010875,1.97114
-0.0001075,1.97114
-0.00010625,1.97114
-0.000105,1.97114
-0.00010375,1.9708
-0.0001025,1.97114
-0.00010125,1.97114
-0.0001,1.9708
-9.875e-05,1.9708
-9.75e-05,1.97114
-9.625e-05,1.9708
-9.5e-05,1.97147
-9.375e-05,1.97114
-9.25e-05,1.97114
-9.125e-05,1.97114
-9e-05,1.97114
-8.875e-05,1.9708
-8.75e-05,1.9708
-8.625e-05,1.97114
-8.5e-05,1.97114
-8.375e-05,1.97147
-8.25e-05,1.97147
-8.125e-05,1.9708
-8e-05,1.97147
-7.875e-05,1.97114
-7.75e-05,1.9708
-7.625e-05,1.97047
-7.5e-05,1.9708
-7.375e-05,1.9708
-7.25e-05,1.9708
-7.125e-05,1.97181
-7e-05,1.97147
-6.875e-05,1.97114
-6.75e-05,1.97147
-6.625e-05,1.97114
-6.5e-05,1.97181
-6.375e-05,1.97147
-6.25e-05,1.97147
-6.125e-05,1.97114
-6e-05,1.9708
-5.875e-05,1.9708
-5.75e-05,1.97114
-5.625e-05,1.9708
-5.5e-05,1.9708
-5.375e-05,1.97114
-5.25e-05,1.9708
-5.125e-05,1.9708
-5e-05,1.97114
-4.875e-05,1.97147
-4.75e-05,1.97114
-4.625e-05,1.97114
-4.5e-05,1.9708
-4.375e-05,1.9708
-4.25e-05,1.9708
-4.125e-05,1.97114
-4e-05,1.97147
-3.875e-05,1.9708
-3.75e-05,1.97114
-3.625e-05,1.97147
-3.5e-05,1.97114
-3.375e-05,1.97114
-3.25e-05,1.9708
-3.125e-05,1.9708
-3e-05,1.97114
-2.875e-05,1.97147
-2.75e-05,1.97147
-2.625e-05,1.97114
-2.5e-05,1.97114
-2.375e-05,1.97114
-2.25e-05,1.97114
-2.125e-05,1.9708
-2e-05,1.9708
-1.875e-05,1.97114
-1.75e-05,1.97147
-1.625e-05,1.9708
-1.5e-05,1.97114
-1.375e-05,1.97114
-1.25e-05,1.9708
-1.125e-05,1.97114
-1e-05,1.97147
-8.75e-06,1.97114
-7.5e-06,1.97114
-6.25e-06,1.9708
-5e-06,1.97114
-3.75e-06,1.97114
-2.5e-06,1.97114
-1.25e-06,1.9819
0,2.00375
1.25e-06,2.00846
2.5e-06,2.01283
3.75e-06,2.01754
5e-06,2.02258
6.25e-06,2.0283
7.5e-06,2.03368
8.75e-06,2.03973
1e-05,2.04545
1.125e-05,2.05116
1.25e-05,2.05722
1.375e-05,2.06394
1.5e-05,2.07033
1.625e-05,2.07705
1.75e-05,2.08344
1.875e-05,2.09017
2e-05,2.09723
2.125e-05,2.10463
2.25e-05,2.11135
2.375e-05,2.11841
2.5e-05,2.12413
2.625e-05,2.13153
2.75e-05,2.13926
2.875e-05,2.14632
3e-05,2.15338
3.125e-05,2.16044
3.25e-05,2.16751
3.375e-05,2.1749
3.5e-05,2.1823
3.625e-05,2.18902
3.75e-05,2.19676
3.875e-05,2.20382
4e-05,2.21155
4.125e-05,2.21895
4.25e-05,2.22568
4.375e-05,2.2324
4.5e-05,2.2398
4.625e-05,2.2472
4.75e-05,2.25459
4.875e-05,2.26199
5e-05,2.26905
5.125e-05,2.27645
5.25e-05,2.28385
5.375e-05,2.29124
5.5e-05,2.2983
5.625e-05,2.30537
5.75e-05,2.31276
5.875e-05,2.32016
6e-05,2.32722
6.125e-05,2.33462
6.25e-05,2.34235
6.375e-05,2.34908
6.5e-05,2.35648
6.625e-05,2.36354
6.75e-05,2.3706
6.875e-05,2.37799
7e-05,2.38506
7.125e-05,2.39245
7.25e-05,2.39985
7.375e-05,2.40725
7.5e-05,2.41364
7.625e-05,2.42103
7.75e-05,2.42843
7.875e-05,2.43583
8e-05,2.44289
8.125e-05,2.45029
8.25e-05,2.45769
8.375e-05,2.46475
8.5e-05,2.47147
8.625e-05,2.47853
8.75e-05,2.48593
8.875e-05,2.49265
9e-05,2.49938
9.125e-05,2.50678
9.25e-05,2.51417
9.375e-05,2.52124
9.5e-05,2.52796
9.625e-05,2.53536
9.75e-05,2.54242
9.875e-05,2.54948
0.0001,2.55688
0.00010125,2.5636
0.0001025,2.56999
0.00010375,2.57739
0.000105,2.58445
0.00010625,2.59117
0.0001075,2.5979
0.00010875,2.60462
0.00011,2.61236
0.00011125,2.61908
0.0001125,2.62614
0.00011375,2.63354
0.000115,2.63993
0.00011625,2.64666
0.0001175,2.65372
0.00011875,2.66044
0.00012,2.66683
0.00012125,2.67423
0.0001225,2.68129
0.00012375,2.68768
0.000125,2.6944
0.00012625,2.70113
0.0001275,2.70752
0.00012875,2.71491
0.00013,2.72164
0.00013125,2.72803
0.0001325,2.73475
0.00013375,2.74148
0.000135,2.7482
0.00013625,2.75459
0.0001375,2.76132
0.00013875,2.76804
0.00014,2.7751
0.00014125,2.78183
0.0001425,2.78821
0.00014375,2.7946
0.000145,2.80133
0.00014625,2.80805
0.0001475,2.81444
0.00014875,2.8215
0.00015,2.82756
0.00015125,2.83394
0.0001525,2.84101
0.00015375,2.84773
0.000155,2.85378
0.00015625,2.86051
0.0001575,2.86723
0.00015875,2.87362
0.00016,2.88001
0.00016125,2.88673
0.0001625,2.89279
0.00016375,2.89918
0.000165,2.9059
0.00016625,2.91229
0.0001675,2.91868
0.00016875,2.9254
0.00017,2.93179
0.00017125,2.93784
0.0001725,2.94423
0.00017375,2.95029
0.000175,2.95701
0.00017625,2.9634
0.0001775,2.96979
0.00017875,2.97618
0.00018,2.98256
0.00018125,2.98895
0.0001825,2.99467
0.00018375,3.00139
0.000185,3.00778
0.00018625,3.01384
0.0001875,3.02022
0.00018875,3.02628
0.00019,3.03199
0.00019125,3.03905
0.0001925,3.04443
0.00019375,3.05116
0.000195,3.05755
0.00019625,3.0636
0.0001975,3.06932
0.00019875,3.07604
0.0002,3.08243
0.00020125,3.08815
0.0002025,3.0942
0.00020375,3.10025
0.000205,3.10664
0.00020625,3.11269
0.0002075,3.11874
0.00020875,3.12513
0.00021,3.13085
0.00021125,3.1369
0.0002125,3.14329
0.00021375,3.14867
0.000215,3.15472
0.00021625,3.16111
0.0002175,3.16649
0.00021875,3.17254
0.00022,3.1796
0.00022125,3.18532
0.0002225,3.19104
0.00022375,3.19642
0.000225,3.20247
0.00022625,3.20886
0.0002275,3.21491
0.00022875,3.22096
0.00023,3.22702
0.00023125,3.23307
0.0002325,3.23878
0.00023375,3.24484
0.000235,3.25055
0.00023625,3.25661
0.0002375,3.26232
0.00023875,3.2677
0.00024,3.27375
0.00024125,3.27913
0.0002425,3.28485
0.00024375,3.2909
0.000245,3.29662
0.00024625,3.30233
0.0002475,3.30872
0.00024875,3.31478
0.00025,3.32049
0.00025125,3.32587
0.0002525,3.33159
0.00025375,3.3373
0.000255,3.34336
0.00025625,3.34907
0.0002575,3.35445
0.00025875,3.36017
0.00026,3.36588
0.00026125,3.37126
0.0002625,3.37698
0.00026375,3.38303
0.000265,3.38841
0.00026625,3.39413
0.0002675,3.39985
0.00026875,3.40489
0.00027,3.41094
0.00027125,3.41632
0.0002725,3.42237
0.00027375,3.42775
0.000275,3.4328
0.00027625,3.43851
0.0002775,3.44457
0.00027875,3.44995
0.00028,3.45533
0.00028125,3.46071
0.0002825,3.46676
0.00028375,3.47247
0.000285,3.47685
0.00028625,3.48256
0.0002875,3.48828
0.00028875,3.49366
0.00029,3.49904
0.00029125,3.50442
0.0002925,3.51013
0.00029375,3.51551
0.000295,3.52123
0.00029625,3.52627
0.0002975,3.53098
0.00029875,3.5367
0.0003,3.54275
0.00030125,3.54779
0.0003025,3.55317
0.00030375,3.55855
0.000305,3.5636
0.00030625,3.56898
0.0003075,3.57469
0.00030875,3.57974
0.00031,3.58512
0.00031125,3.59016
0.0003125,3.5952
0.00031375,3.60092
0.000315,3.6063
0.00031625,3.61134
0.0003175,3.61639
0.00031875,3.62143
0.00032,3.62681
0.00032125,3.63186
0.0003225,3.63724
0.00032375,3.64295
0.000325,3.648
0.00032625,3.65304
0.0003275,3.65842
0.00032875,3.66346
0.00033,3.66851
0.00033125,3.67389
0.0003325,3.67859
0.00033375,3.68397
0.000335,3.68969
0.00033625,3.6944
0.0003375,3.6991
0.00033875,3.70415
0.00034,3.70919
0.00034125,3.71457
0.0003425,3.71928
0.00034375,3.72432
0.000345,3.73004
0.00034625,3.73441
0.0003475,3.73979
0.00034875,3.74517
0.00035,3.74988
0.00035125,3.75492
0.0003525,3.7603
0.00035375,3.76501
0.000355,3.76938
0.00035625,3.77476
0.0003575,3.7798
0.00035875,3.78485
0.00036,3.78955
0.00036125,3.79493
0.0003625,3.79964
0.00036375,3.80435
0.000365,3.80939
0.00036625,3.81444
0.0003675,3.81948
0.00036875,3.82419
0.00037,3.82923
0.00037125,3.8336
0.0003725,3.83898
0.00037375,3.84369
0.000375,3.84806
0.00037625,3.85344
0.0003775,3.85815
0.00037875,3.86286
0.00038,3.86756
0.00038125,3.87261
0.0003825,3.87698
0.00038375,3.88169
0.000385,3.88606
0.00038625,3.8911
0.0003875,3.89614
0.00038875,3.90085
0.00039,3.90522
0.00039125,3.90993
0.0003925,3.9143
0.00039375,3.91935
0.000395,3.92405
0.00039625,3.92809
0.0003975,3.9328
0.00039875,3.9375
0.0004,3.94221
0.00040125,3.94725
0.0004025,3.95129
0.00040375,3.95566
0.000405,3.95936
0.00040625,3.96407
0.0004075,3.96877
0.00040875,3.9718
0.00041,3.97651
0.00041125,3.98054
0.0004125,3.98491
0.00041375,3.98895
0.000415,3.99265
0.00041625,3.99668
0.0004175,4.00038
0.00041875,4.00442
0.00042,4.00778
0.00042125,4.01148
0.0004225,4.01518
0.00042375,4.01854
0.000425,4.0219
0.00042625,4.02325
0.0004275,4.02089
0.00042875,4.01585
0.00043,4.0098
0.00043125,4.00408
0.0004325,3.99836
0.00043375,3.99332
0.000435,3.98794
0.00043625,3.98357
0.0004375,3.97953
0.00043875,3.9755
0.00044,3.97214
0.00044125,3.96945
0.0004425,3.96743
0.00044375,3.96575
0.000445,3.96373
0.00044625,3.96238
0.0004475,3.9607
0.00044875,3.95936
0.00045,3.95835
0.00045125,3.95734
0.0004525,3.95667
0.00045375,3.95633
0.000455,3.95566
0.00045625,3.95465
0.0004575,3.95499
0.00045875,3.95465
0.00046,3.95465
0.00046125,3.95431
0.0004625,3.95431
0.00046375,3.95465
0.000465,3.95398
0.00046625,3.95431
0.0004675,3.95431
0.00046875,3.95398
0.00047,3.95398
0.00047125,3.95465
0.0004725,3.95431
0.00047375,3.95465
0.000475,3.95431
0.00047625,3.95465
0.0004775,3.95499
0.00047875,3.95499
0.00048,3.95499
0.00048125,3.95499
0.0004825,3.95465
0.00048375,3.95499
0.000485,3.95499
0.00048625,3.95532
0.0004875,3.95532
0.00048875,3.95532
0.00049,3.95499
0.00049125,3.95532
0.0004925,3.95566
0.00049375,3.95532
0.000495,3.95532
0.00049625,3.95532
0.0004975,3.95499
0.00049875,3.95499
0.0005,3.95499
0.00050125,3.95499
0.0005025,3.95499
0.00050375,3.95532
0.000505,3.95465
0.00050625,3.95499
0.0005075,3.95532
0.00050875,3.95499
0.00051,3.95499
0.00051125,3.95465
0.0005125,3.95499
0.00051375,3.95532
0.000515,3.95499
0.00051625,3.95465
0.0005175,3.95499
0.00051875,3.95532
0.00052,3.95465
0.00052125,3.95465
0.0005225,3.95465
0.00052375,3.95499
0.000525,3.95499
0.00052625,3.95465
0.0005275,3.95465
0.00052875,3.95431
0.00053,3.95431
0.00053125,3.95465
0.0005325,3.95499
0.00053375,3.95465
0.000535,3.95398
0.00053625,3.95431
0.0005375,3.95465
0.00053875,3.95465
0.00054,3.95431
0.00054125,3.95431
0.0005425,3.95431
0.00054375,3.95465
0.000545,3.95465
0.00054625,3.95431
0.0005475,3.95532
0.00054875,3.95532
0.00055,3.95499
0.00055125,3.95465
0.0005525,3.95431
0.00055375,3.95431
0.000555,3.95431
0.00055625,3.95431
0.0005575,3.95431
0.00055875,3.95431
0.00056,3.95431
0.00056125,3.95465
0.0005625,3.95499
0.00056375,3.95465
0.000565,3.95431
0.00056625,3.95431
0.0005675,3.95398
0.00056875,3.95398
0.00057,3.95431
0.00057125,3.95431
0.0005725,3.95431
0.00057375,3.95465
0.000575,3.95465
0.00057625,3.95465
0.0005775,3.95465
0.00057875,3.95398
0.00058,3.95398
0.00058125,3.95465
0.0005825,3.95465
0.00058375,3.95465
0.000585,3.95465
0.00058625,3.95465
0.0005875,3.95431
0.00058875,3.95431
0.00059,3.95431
0.00059125,3.95465
0.0005925,3.95431
0.00059375,3.95398
0.000595,3.95398
0.00059625,3.95465
0.0005975,3.95398
0.00059875,3.95431
0.0006,3.95465
0.00060125,3.95465
0.0006025,3.95398
0.00060375,3.95398
0.000605,3.95398
0.00060625,3.95431
0.0006075,3.95431
0.00060875,3.95431
0.00061,3.95431
0.00061125,3.95431
0.0006125,3.95398
0.00061375,3.95364
0.000615,3.95398
0.00061625,3.95431
0.0006175,3.95431
0.00061875,3.95398
0.00062,3.95364
0.00062125,3.95398
0.0006225,3.95431
0.00062375,3.95465
0.000625,3.95431
0.00062625,3.95398
0.0006275,3.95398
0.00062875,3.95431
0.00063,3.95431
0.00063125,3.95499
0.0006325,3.95431
0.00063375,3.95398
0.000635,3.95398
0.00063625,3.95398
0.0006375,3.95398
0.00063875,3.95398
0.00064,3.95398
0.00064125,3.95398
0.0006425,3.95431
0.00064375,3.95431
0.000645,3.95364
0.00064625,3.95431
0.0006475,3.95431
0.00064875,3.95398
0.00065,3.95398
0.00065125,3.95465
0.0006525,3.95398
0.00065375,3.95398
0.000655,3.95431
0.00065625,3.95431
0.0006575,3.95331
0.00065875,3.95398
0.00066,3.95398
0.00066125,3.95364
0.0006625,3.95398
0.00066375,3.95364
0.000665,3.95398
0.00066625,3.95364
0.0006675,3.95331
0.00066875,3.95398
0.00067,3.95398
0.00067125,3.95364
0.0006725,3.95364
0.00067375,3.95364
0.000675,3.95364
0.00067625,3.95398
0.0006775,3.95364
0.00067875,3.95364
0.00068,3.95398
0.00068125,3.95431
0.0006825,3.95431
0.00068375,3.95398
0.000685,3.95364
0.00068625,3.95398
0.0006875,3.95364
0.00068875,3.95398
0.00069,3.95364
0.00069125,3.95364
0.0006925,3.95364
0.00069375,3.95431
0.000695,3.95431
0.00069625,3.95398
0.0006975,3.95431
0.00069875,3.95398
0.0007,3.95398
0.00070125,3.95331
0.0007025,3.95331
0.00070375,3.95364
0.000705,3.95398
0.00070625,3.95398
0.0007075,3.95398
0.00070875,3.95364
0.00071,3.95398
0.00071125,3.95398
0.0007125,3.95364
0.00071375,3.95398
0.000715,3.95398
0.00071625,3.95398
0.0007175,3.95364
0.00071875,3.95431
0.00072,3.95398
0.00072125,3.95364
0.0007225,3.95364
0.00072375,3.95364
0.000725,3.95431
0.00072625,3.95398
0.0007275,3.95398
0.00072875,3.95398
0.00073,3.95431
0.00073125,3.95398
0.0007325,3.95431
0.00073375,3.95398
0.000735,3.95431
0.00073625,3.95431
0.0007375,3.95431
0.00073875,3.95364
0.00074,3.95364
0.00074125,3.95398
0.0007425,3.95431
0.00074375,3.95431
0.000745,3.95431
0.00074625,3.95431
0.0007475,3.95431
0.00074875,3.95364
0.00075,3.95364
0.00075125,3.95431
0.0007525,3.95465
0.00075375,3.95431
0.000755,3.95431
0.00075625,3.95431
0.0007575,3.95398
0.00075875,3.95331
0.00076,3.95364
0.00076125,3.95364
0.0007625,3.95431
0.00076375,3.95431
0.000765,3.95431
0.00076625,3.95431
0.0007675,3.95431
0.00076875,3.95398
0.00077,3.95364
0.00077125,3.95364
0.0007725,3.95364
0.00077375,3.95364
0.000775,3.95398
0.00077625,3.95431
0.0007775,3.95465
0.00077875,3.95398
0.00078,3.95431
0.00078125,3.95465
0.0007825,3.95398
0.00078375,3.95398
0.000785,3.95364
0.00078625,3.95364
0.0007875,3.95364
0.00078875,3.95331
0.00079,3.95364
0.00079125,3.95364
0.0007925,3.95364
0.00079375,3.95398
0.000795,3.95398
0.00079625,3.95364
0.0007975,3.95364
0.00079875,3.95364
0.0008,3.95364
0.00080125,3.95398
0.0008025,3.95364
0.00080375,3.95364
0.000805,3.95398
0.00080625,3.95431
0.0008075,3.95431
0.00080875,3.95398
0.00081,3.95398
0.00081125,3.95364
0.0008125,3.95398
0.00081375,3.95398
0.000815,3.95364
0.00081625,3.95364
0.0008175,3.95331
0.00081875,3.95364
0.00082,3.95398
0.00082125,3.95398
0.0008225,3.95364
0.00082375,3.95364
0.000825,3.95398
0.00082625,3.95398
0.0008275,3.95364
0.00082875,3.95364
0.00083,3.95364
0.00083125,3.95331
0.0008325,3.95331
0.00083375,3.95364
0.000835,3.95364
0.00083625,3.95364
0.0008375,3.95364
0.00083875,3.95398
0.00084,3.95398
0.00084125,3.95398
0.0008425,3.95398
0.00084375,3.95331
0.000845,3.95364
0.00084625,3.95364
0.0008475,3.95398
0.00084875,3.95398
0.00085,3.95297
0.00085125,3.95331
0.0008525,3.95331
0.00085375,3.95331
0.000855,3.95364
0.00085625,3.95331
0.0008575,3.95331
0.00085875,3.95331
0.00086,3.95297
0.00086125,3.95297
0.0008625,3.95331
0.00086375,3.95364
0.000865,3.95364
0.00086625,3.95364
0.0008675,3.95331
0.00086875,3.95398
0.00087,3.95398
0.00087125,3.95331
0.0008725,3.95364
0.00087375,3.95364
0.000875,3.95331
0.00087625,3.95297
0.0008775,3.95331
0.00087875,3.95297
0.00088,3.95331
0.00088125,3.95364
0.0008825,3.95331
0.00088375,3.95364
0.000885,3.95431
0.00088625,3.95364
0.0008875,3.95364
0.00088875,3.95364
0.00089,3.95331
0.00089125,3.95364
0.0008925,3.95331
0.00089375,3.95364
0.000895,3.95331
0.00089625,3.95331
0.0008975,3.95331
0.00089875,3.95297
0.0009,3.95331
0.00090125,3.95364
0.0009025,3.95331
0.00090375,3.95331
0.000905,3.95331
0.00090625,3.95364
0.0009075,3.95331
0.00090875,3.95331
0.00091,3.95297
0.00091125,3.95331
0.0009125,3.95364
0.00091375,3.95364
0.000915,3.95364
0.00091625,3.95364
0.0009175,3.95331
0.00091875,3.95364
0.00092,3.95331
0.00092125,3.95297
0.0009225,3.95331
0.00092375,3.95364
0.000925,3.95297
0.00092625,3.95331
0.0009275,3.95331
0.00092875,3.95331
0.00093,3.95331
0.00093125,3.95364
0.0009325,3.95364
0.00093375,3.95364
0.000935,3.95297
0.00093625,3.95364
0.0009375,3.95364
0.00093875,3.95331
0.00094,3.95331
0.00094125,3.95364
0.0009425,3.95364
0.00094375,3.95398
0.000945,3.95297
0.00094625,3.95331
0.0009475,3.95364
0.00094875,3.95331
0.00095,3.95331
0.00095125,3.95364
0.0009525,3.95331
0.00095375,3.95297
0.000955,3.95331
0.00095625,3.95297
0.0009575,3.95297
0.00095875,3.95297
0.00096,3.95297
0.00096125,3.95331
0.0009625,3.95364
0.00096375,3.95331
0.000965,3.95364
0.00096625,3.95331
0.0009675,3.95331
0.00096875,3.95297
0.00097,3.95331
0.00097125,3.95364
0.0009725,3.95364
0.00097375,3.95398
0.000975,3.95364
0.00097625,3.95364
0.0009775,3.95364
0.00097875,3.95297
0.00098,3.95331
0.00098125,3.95398
0.0009825,3.95331
0.00098375,3.95364
0.000985,3.95331
0.00098625,3.95331
0.0009875,3.95331
0.00098875,3.95297
0.00099,3.95297
0.00099125,3.95331
0.0009925,3.95297
0.00099375,3.95297
0.000995,3.95297
0.00099625,3.95297
0.0009975,3.95263
0.00099875,3.9523
0.001,3.93212
0.00100125,3.8911
0.0010025,3.84873
0.00100375,3.80771
0.001005,3.76568
0.00100625,3.72432
0.0010075,3.68229
0.00100875,3.6406
0.00101,3.5989
0.00101125,3.55754
0.0010125,3.51619
0.00101375,3.47483
0.001015,3.43347
0.00101625,3.39312
0.0010175,3.35143
0.00101875,3.31007
0.00102,3.26905
0.00102125,3.22702
0.0010225,3.18599
0.00102375,3.14531
0.001025,3.10496
0.00102625,3.06427
0.0010275,3.02325
0.00102875,2.98256
0.00103,2.94188
0.00103125,2.90119
0.0010325,2.86051
0.00103375,2.82049
0.001035,2.78014
0.00103625,2.73946
0.0010375,2.69945
0.00103875,2.65876
0.00104,2.61875
0.00104125,2.5784
0.0010425,2.53872
0.00104375,2.49871
0.001045,2.45903
0.00104625,2.41868
0.0010475,2.37934
0.00104875,2.33966
0.00105,2.30099
0.00105125,2.26233
0.0010525,2.22467
0.00105375,2.1897
0.001055,2.15843
0.00105625,2.13153
0.0010575,2.10765
0.00105875,2.08815
0.00106,2.07134
0.00106125,2.05688
0.0010625,2.0441
0.00106375,2.03402
0.001065,2.02494
0.00106625,2.01754
0.0010675,2.01048
0.00106875,2.0051
0.00107,2.00005
0.00107125,1.99602
0.0010725,1.99232
0.00107375,1.98929
0.001075,1.9866
0.00107625,1.98459
0.0010775,1.9819
0.00107875,1.98055
0.00108,1.97921
0.00108125,1.97753
0.0010825,1.97618
0.00108375,1.97585
0.001085,1.97517
0.00108625,1.97416
0.0010875,1.97383
0.00108875,1.97349
0.00109,1.97349
0.00109125,1.97248
0.0010925,1.97248
0.00109375,1.97215
0.001095,1.97248
0.00109625,1.97248
0.0010975,1.97181
0.00109875,1.97181
0.0011,1.97215
0.00110125,1.97181
0.0011025,1.97114
0.00110375,1.97181
0.001105,1.97181
0.00110625,1.97181
0.0011075,1.97181
0.00110875,1.97147
0.00111,1.97147
0.00111125,1.97181
0.0011125,1.97147
0.00111375,1.97147
0.001115,1.97181
0.00111625,1.97181
0.0011175,1.97215
0.00111875,1.97181
0.00112,1.97215
0.00112125,1.97215
0.0011225,1.97215
0.00112375,1.97181
0.001125,1.97181
0.00112625,1.97181
0.0011275,1.97181
0.00112875,1.97181
0.00113,1.97181
0.00113125,1.97181
0.0011325,1.97147
0.00113375,1.97181
0.001135,1.97181
0.00113625,1.97147
0.0011375,1.97181
0.00113875,1.97147
0.00114,1.9708
0.00114125,1.97147
0.0011425,1.97181
0.00114375,1.97181
0.001145,1.97147
0.00114625,1.97181
0.0011475,1.97147
0.00114875,1.97147
0.00115,1.97147
0.00115125,1.97147
0.0011525,1.97147
0.00115375,1.97114
0.001155,1.97181
0.00115625,1.97147
0.0011575,1.97147
0.00115875,1.97181
0.00116,1.97181
0.00116125,1.97147
0.0011625,1.97147
0.00116375,1.97147
0.001165,1.97147
0.00116625,1.97114
0.0011675,1.97114
0.00116875,1.9708
0.00117,1.97114
0.00117125,1.97114
0.0011725,1.97114
0.00117375,1.97114
0.001175,1.97147
0.00117625,1.97147
0.0011775,1.97114
0.00117875,1.97114
0.00118,1.9708
0.00118125,1.97047
0.0011825,1.97147
0.00118375,1.97147
0.001185,1.97147
0.00118625,1.97114
0.0011875,1.97114
0.00118875,1.97114
0.00119,1.97114
0.00119125,1.9708
0.0011925,1.9708
0.00119375,1.9708
0.001195,1.9708
0.00119625,1.9708
0.0011975,1.9708
0.00119875,1.97147
0.0012,1.97114
0.00120125,1.97147
0.0012025,1.97114
0.00120375,1.9708
0.001205,1.9708
0.00120625,1.97147
0.0012075,1.9708
0.00120875,1.9708
0.00121,1.97114
0.00121125,1.97147
0.0012125,1.97114
0.00121375,1.97114
0.001215,1.9708
0.00121625,1.97114
0.0012175,1.97147
0.00121875,1.97114
0.00122,1.97114
0.00122125,1.97114
0.0012225,1.9708
0.00122375,1.97114
0.001225,1.97114
0.00122625,1.97147
0.0012275,1.97147
0.00122875,1.97114
0.00123,1.9708
0.00123125,1.9708
0.0012325,1.97181
0.00123375,1.97114
0.001235,1.97114
0.00123625,1.97114
0.0012375,1.97114
0.00123875,1.97147
0.00124,1.97147
0.00124125,1.97114
0.0012425,1.97114
0.00124375,1.97114
0.001245,1.97147
0.00124625,1.97114
0.0012475,1.97114
0.00124875,1.97147
0.00125,1.97114
0.00125125,1.97114
0.0012525,1.97147
0.00125375,1.97147
0.001255,1.97114
0.00125625,1.97114
0.0012575,1.97114
0.00125875,1.97114
0.00126,1.97147
0.00126125,1.97147
0.0012625,1.97114
0.00126375,1.97114
0.001265,1.97181
0.00126625,1.97147
0.0012675,1.9708
0.00126875,1.97114
0.00127,1.97114
0.00127125,1.97114
0.0012725,1.97147
0.00127375,1.97114
0.001275,1.97147
0.00127625,1.97147
0.0012775,1.97114
0.00127875,1.9708
0.00128,1.97147
0.00128125,1.97114
0.0012825,1.97114
0.00128375,1.97147
0.001285,1.97147
0.00128625,1.97147
0.0012875,1.97147
0.00128875,1.97147
0.00129,1.97114
0.00129125,1.97114
0.0012925,1.97114
0.00129375,1.97114
0.001295,1.97114
0.00129625,1.97114
0.0012975,1.97147
0.00129875,1.97181
0.0013,1.97147
0.00130125,1.97114
0.0013025,1.97114
0.00130375,1.97047
0.001305,1.9708
0.00130625,1.97114
0.0013075,1.97147
0.00130875,1.9708
0.00131,1.9708
0.00131125,1.97114
0.0013125,1.97114
0.00131375,1.97114
0.001315,1.97114
0.00131625,1.97114
0.0013175,1.9708
0.00131875,1.9708
0.00132,1.97114
0.00132125,1.97047
0.0013225,1.97147
0.00132375,1.97147
0.001325,1.97147
0.00132625,1.97114
0.0013275,1.97114
0.00132875,1.97147
0.00133,1.97147
0.00133125,1.97147
0.0013325,1.97181
0.00133375,1.97147
0.001335,1.9708
0.00133625,1.97047
0.0013375,1.97047
0.00133875,1.97114
0.00134,1.97114
0.00134125,1.9708
0.0013425,1.97114
0.00134375,1.97147
0.001345,1.97114
0.00134625,1.9708
0.0013475,1.97114
0.00134875,1.97147
0.00135,1.97114
0.00135125,1.9708
0.0013525,1.97114
0.00135375,1.97114
0.001355,1.9708
0.00135625,1.9708
0.0013575,1.97114
0.00135875,1.97114
0.00136,1.97147
0.00136125,1.97114
0.0013625,1.97147
0.00136375,1.97114
0.001365,1.9708
0.00136625,1.9708
0.0013675,1.9708
0.00136875,1.97114
0.00137,1.97114
0.00137125,1.97147
0.0013725,1.97114
0.00137375,1.9708
0.001375,1.9708
0.00137625,1.9708
0.0013775,1.9708
0.00137875,1.9708
0.00138,1.9708
0.00138125,1.97114
0.0013825,1.97114
0.00138375,1.97114
0.001385,1.97147
0.00138625,1.9708
0.0013875,1.97114
0.00138875,1.9708
0.00139,1.97047
0.00139125,1.9708
0.0013925,1.9708
0.00139375,1.9708
0.001395,1.9708
0.00139625,1.9708
0.0013975,1.97114
0.00139875,1.9708
0.0014,1.9708
0.00140125,1.97047
0.0014025,1.9708
0.00140375,1.9708
0.001405,1.9708
0.00140625,1.97114
0.0014075,1.97114
0.00140875,1.9708
0.00141,1.97114
0.00141125,1.9708
0.0014125,1.9708
0.00141375,1.97114
0.001415,1.9708
0.00141625,1.97047
0.0014175,1.9708
0.00141875,1.97114
0.00142,1.97147
0.00142125,1.97114
0.0014225,1.9708
0.00142375,1.9708
0.001425,1.97147
0.00142625,1.97114
0.0014275,1.97181
0.00142875,1.97114
0.00143,1.9708
0.00143125,1.9708
0.0014325,1.97114
0.00143375,1.97114
0.001435,1.9708
0.00143625,1.9708
0.0014375,1.9708
0.00143875,1.97147
0.00144,1.97114
0.00144125,1.97147
0.0014425,1.97114
0.00144375,1.97181
0.001445,1.97114
0.00144625,1.97114
0.0014475,1.97114
0.00144875,1.97114
0.00145,1.97147
0.00145125,1.97114
0.0014525,1.9708
0.00145375,1.97114
0.001455,1.97147
0.00145625,1.9708
0.0014575,1.97114
0.00145875,1.9708
0.00146,1.97114
0.00146125,1.97147
0.0014625,1.97147
0.00146375,1.97114
0.001465,1.9708
0.00146625,1.9708
0.0014675,1.9708
0.00146875,1.9708
0.00147,1.97114
0.00147125,1.97114
0.0014725,1.97114
0.00147375,1.9708
0.001475,1.97114
0.00147625,1.97181
0.0014775,1.97147
0.00147875,1.97147
0.00148,1.97147
0.00148125,1.97147
0.0014825,1.97114
0.00148375,1.97114
0.001485,1.97114
0.00148625,1.97181
0.0014875,1.97147
0.00148875,1.97114
0.00149,1.9708
0.00149125,1.97114
0.0014925,1.97147
0.00149375,1.97181
0.001495,1.97147
0.00149625,1.97114
0.0014975,1.97114
0.00149875,1.97114
0.0015,1.97181
0.00150125,1.97147
0.0015025,1.97114
0.00150375,1.97114
0.001505,1.97147
0.00150625,1.97181
0.0015075,1.97114
0.00150875,1.97147
0.00151,1.97147
0.00151125,1.97114
0.0015125,1.97114
0.00151375,1.97114
0.001515,1.97114
0.00151625,1.97114
0.0015175,1.97114
0.00151875,1.97114
0.00152,1.97114
0.00152125,1.9708
0.0015225,1.97114
0.00152375,1.97114
0.001525,1.97114
0.00152625,1.97114
0.0015275,1.97114
0.00152875,1.97114
0.00153,1.97147
0.00153125,1.97114
0.0015325,1.97114
0.00153375,1.97114
0.001535,1.97114
0.00153625,1.97114
0.0015375,1.97114
0.00153875,1.97181
0.00154,1.97147
0.00154125,1.97114
0.0015425,1.9708
0.00154375,1.97147
0.001545,1.97114
0.00154625,1.9708
0.0015475,1.97181
0.00154875,1.97114
0.00155,1.97114
0.00155125,1.97114
0.0015525,1.97114
0.00155375,1.97147
0.001555,1.97114
0.00155625,1.97181
0.0015575,1.97114
0.00155875,1.9708
0.00156,1.9708
0.00156125,1.97114
0.0015625,1.97181
0.00156375,1.97147
0.001565,1.97114
0.00156625,1.97147
0.0015675,1.97147
0.00156875,1.97114
0.00157,1.97114
0.00157125,1.97114
0.0015725,1.97114
0.00157375,1.97147
0.001575,1.9708
0.00157625,1.97114
0.0015775,1.97114
0.00157875,1.97114
0.00158,1.97147
0.00158125,1.97114
0.0015825,1.97114
0.00158375,1.97114
0.001585,1.97114
0.00158625,1.97114
0.0015875,1.97114
0.00158875,1.97114
0.00159,1.97147
0.00159125,1.97114
0.0015925,1.97114
0.00159375,1.9708
0.001595,1.9708
0.00159625,1.97047
0.0015975,1.9708
0.00159875,1.97114
0.0016,1.97114
0.00160125,1.9708
0.0016025,1.9708
0.00160375,1.97114
0.001605,1.97114
0.00160625,1.97114
0.0016075,1.9708
0.00160875,1.97147
0.00161,1.9708
0.00161125,1.9708
0.0016125,1.97114
0.00161375,1.9708
0.001615,1.9708
0.00161625,1.97114
0.0016175,1.97147
0.00161875,1.9708
0.00162,1.9708
0.00162125,1.97114
0.0016225,1.9708
0.00162375,1.9708
0.001625,1.97047
0.00162625,1.9708
0.0016275,1.97114
0.00162875,1.97114
0.00163,1.97047
0.00163125,1.9708
0.0016325,1.9708
0.00163375,1.9708
0.001635,1.97047
0.00163625,1.9708
0.0016375,1.9708
0.00163875,1.97114
0.00164,1.97114
0.00164125,1.9708
0.0016425,1.9708
0.00164375,1.97114
0.001645,1.97114
0.00164625,1.97114
0.0016475,1.9708
0.00164875,1.97047
0.00165,1.97047
0.00165125,1.9708
0.0016525,1.9708
0.00165375,1.9708
0.001655,1.9708
0.00165625,1.9708
0.0016575,1.97114
0.00165875,1.97114
0.00166,1.97147
0.00166125,1.97147
0.0016625,1.97114
0.00166375,1.97147
0.001665,1.97147
0.00166625,1.97147
0.0016675,1.97114
0.00166875,1.97114
0.00167,1.97114
0.00167125,1.97114
0.0016725,1.97114
0.00167375,1.9708
0.001675,1.9708
0.00167625,1.9708
0.0016775,1.9708
0.00167875,1.9708
0.00168,1.9708
0.00168125,1.97114
0.0016825,1.97114
0.00168375,1.97114
0.001685,1.97114
0.00168625,1.97114
0.0016875,1.9708
0.00168875,1.97147
0.00169,1.97147
0.00169125,1.9708
0.0016925,1.9708
0.00169375,1.97114
0.001695,1.97114
0.00169625,1.97147
0.0016975,1.97147
0.00169875,1.97114
0.0017,1.97114
0.00170125,1.97114
0.0017025,1.97114
0.00170375,1.9708
0.001705,1.9708
0.00170625,1.97114
0.0017075,1.97114
0.00170875,1.97147
0.00171,1.97114
0.00171125,1.97114
0.0017125,1.97114
0.00171375,1.97114
0.001715,1.97147
0.00171625,1.97114
0.0017175,1.97114
0.00171875,1.97181
0.00172,1.97181
0.00172125,1.97114
0.0017225,1.97114
0.00172375,1.97147
0.001725,1.97147
0.00172625,1.97114
0.0017275,1.97147
0.00172875,1.97147
0.00173,1.97147
0.00173125,1.97147
0.0017325,1.97181
0.00173375,1.97147
0.001735,1.97147
0.00173625,1.97147
0.0017375,1.97181
0.00173875,1.97181
0.00174,1.97181
0.00174125,1.97181
0.0017425,1.97147
0.00174375,1.97114
0.001745,1.97114
0.00174625,1.97147
0.0017475,1.97147
0.00174875,1.97147
0.00175,1.97114
0.00175125,1.97114
0.0017525,1.97114
0.00175375,1.97114
0.001755,1.97114
0.00175625,1.97147
0.0017575,1.97181
0.00175875,1.97147
0.00176,1.97147
0.00176125,1.97181
0.0017625,1.97181
0.00176375,1.97114
0.001765,1.97114
0.00176625,1.97114
0.0017675,1.97114
0.00176875,1.97114
0.00177,1.97114
0.00177125,1.97114
0.0017725,1.97147
0.00177375,1.97147
0.001775,1.97147
0.00177625,1.97114
0.0017775,1.97114
0.00177875,1.97147
0.00178,1.97147
0.00178125,1.97114
0.0017825,1.97114
0.00178375,1.97114
0.001785,1.97114
0.00178625,1.97114
0.0017875,1.97114
0.00178875,1.97147
0.00179,1.97147
0.00179125,1.97147
0.0017925,1.97147
0.00179375,1.97114
0.001795,1.97114
0.00179625,1.97114
0.0017975,1.97147
0.00179875,1.97114
0.0018,1.97114
0.00180125,1.9708
0.0018025,1.97114
0.00180375,1.97181
0.001805,1.97147
0.00180625,1.97114
0.0018075,1.9708
0.00180875,1.97114
0.00181,1.9708
0.00181125,1.9708
0.0018125,1.9708
0.00181375,1.97114
0.001815,1.97114
0.00181625,1.9708
0.0018175,1.9708
0.00181875,1.9708
0.00182,1.9708
0.00182125,1.9708
0.0018225,1.97114
0.00182375,1.97147
0.001825,1.97147
0.00182625,1.97114
0.0018275,1.97114
0.00182875,1.97114
0.00183,1.9708
0.00183125,1.9708
0.0018325,1.97114
0.00183375,1.9708
0.001835,1.97047
0.00183625,1.97047
0.0018375,1.97047
0.00183875,1.9708
0.00184,1.9708
0.00184125,1.97047
0.0018425,1.9708
0.00184375,1.97047
0.001845,1.97047
0.00184625,1.97114
0.0018475,1.97114
0.00184875,1.9708
0.00185,1.97114
0.00185125,1.9708
0.0018525,1.97047
0.00185375,1.9708
0.001855,1.97114
0.00185625,1.9708
0.0018575,1.9708
0.00185875,1.9708
0.00186,1.9708
0.00186125,1.97047
0.0018625,1.9708
0.00186375,1.97047
0.001865,1.97047
0.00186625,1.9708
0.0018675,1.9708
0.00186875,1.97114
0.00187,1.97147
0.00187125,1.97114
0.0018725,1.97114
0.00187375,1.97114
0.001875,1.97114
0.00187625,1.97114
0.0018775,1.9708
0.00187875,1.97114
0.00188,1.9708
0.00188125,1.9708
0.0018825,1.97047
0.00188375,1.9708
0.001885,1.97114
0.00188625,1.97047
0.0018875,1.9708
0.00188875,1.97114
0.00189,1.9708
0.00189125,1.97147
0.0018925,1.97114
0.00189375,1.97114
0.001895,1.97114
0.00189625,1.9708
0.0018975,1.9708
0.00189875,1.97114
0.0019,1.97147
0.00190125,1.97147
0.0019025,1.97147
0.00190375,1.97114
0.001905,1.97114
0.00190625,1.97114
0.0019075,1.97114
0.00190875,1.9708
0.00191,1.97114
0.00191125,1.9708
0.0019125,1.9708
0.00191375,1.97114
0.001915,1.97147
0.00191625,1.97114
0.0019175,1.97147
0.00191875,1.97114
0.00192,1.97114
0.00192125,1.97147
0.0019225,1.97147
0.00192375,1.97114
0.001925,1.97114
0.00192625,1.97114
0.0019275,1.97114
0.00192875,1.97181
0.00193,1.97147
0.00193125,1.97147
0.0019325,1.97114
0.00193375,1.97147
0.001935,1.97147
0.00193625,1.9708
0.0019375,1.97114
0.00193875,1.97147
0.00194,1.97147
0.00194125,1.97114
0.0019425,1.97114
0.00194375,1.97147
0.001945,1.97114
0.00194625,1.97114
0.0019475,1.97147
0.00194875,1.97114
0.00195,1.97047
0.00195125,1.97047
0.0019525,1.97114
0.00195375,1.9708
0.001955,1.9708
0.00195625,1.9708
0.0019575,1.97114
0.00195875,1.9708
0.00196,1.97013
0.00196125,1.97047
0.0019625,1.97114
0.00196375,1.9708
0.001965,1.97047
0.00196625,1.97114
0.0019675,1.9708
0.00196875,1.97114
0.00197,1.97114
0.00197125,1.9708
0.0019725,1.9708
0.00197375,1.9708
0.001975,1.97114
0.00197625,1.9708
0.0019775,1.97114
0.00197875,1.97047
0.00198,1.9708
0.00198125,1.97114
0.0019825,1.97114
0.00198375,1.97114
0.001985,1.97114
0.00198625,1.97114
0.0019875,1.9708
0.00198875,1.97114
0.00199,1.9708
0.00199125,1.97114
0.0019925,1.97114
0.00199375,1.97114
0.001995,1.97114
0.00199625,1.9708
0.0019975,1.97114
0.00199875,1.9819
0.002,2.00409
0.00200125,2.00846
0.0020025,2.01283
0.00200375,2.01821
0.002005,2.02258
0.00200625,2.02796
0.0020075,2.03402
0.00200875,2.03906
0.00201,2.04578
0.00201125,2.0515
0.0020125,2.05755
0.00201375,2.06361
0.002015,2.07067
0.00201625,2.07705
0.0020175,2.08344
0.00201875,2.09084
0.00202,2.09723
0.00202125,2.10395
0.0020225,2.11068
0.00202375,2.11774
0.002025,2.12447
0.00202625,2.13153
0.0020275,2.13859
0.00202875,2.14599
0.00203,2.15305
0.00203125,2.16011
0.0020325,2.16717
0.00203375,2.17457
0.002035,2.18163
0.00203625,2.18869
0.0020375,2.19642
0.00203875,2.20348
0.00204,2.21054
0.00204125,2.21794
0.0020425,2.22534
0.00204375,2.23274
0.002045,2.23946
0.00204625,2.2472
0.0020475,2.25459
0.00204875,2.26199
0.00205,2.26939
0.00205125,2.27678
0.0020525,2.28418
0.00205375,2.29124
0.002055,2.2983
0.00205625,2.3057
0.0020575,2.3131
0.00205875,2.31982
0.00206,2.32722
0.00206125,2.33462
0.0020625,2.34202
0.00206375,2.34908
0.002065,2.35648
0.00206625,2.36354
0.0020675,2.37093
0.00206875,2.37799
0.00207,2.38539
0.00207125,2.39279
0.0020725,2.40019
0.00207375,2.40691
0.002075,2.41397
0.00207625,2.42103
0.0020775,2.4281
0.00207875,2.43583
0.00208,2.44289
0.00208125,2.44962
0.0020825,2.45701
0.00208375,2.46407
0.002085,2.47114
0.00208625,2.4782
0.0020875,2.48559
0.00208875,2.49232
0.00209,2.49972
0.00209125,2.50678
0.0020925,2.51384
0.00209375,2.5209
0.002095,2.52729
0.00209625,2.53502
0.0020975,2.54175
0.00209875,2.54814
0.0021,2.55553
0.00210125,2.56226
0.0021025,2.56999
0.00210375,2.57638
0.002105,2.58344
0.00210625,2.59017
0.0021075,2.59756
0.00210875,2.60395
0.00211,2.61169
0.00211125,2.61908
0.0021125,2.62581
0.00211375,2.6322
0.002115,2.63892
0.00211625,2.64565
0.0021175,2.65304
0.00211875,2.65943
0.00212,2.66717
0.00212125,2.67355
0.0021225,2.68028
0.00212375,2.68734
0.002125,2.69373
0.00212625,2.70113
0.0021275,2.70718
0.00212875,2.71491
0.00213,2.7213
0.00213125,2.72803
0.0021325,2.73509
0.00213375,2.74148
0.002135,2.7482
0.00213625,2.75425
0.0021375,2.76132
0.00213875,2.76838
0.00214,2.77476
0.00214125,2.78149
0.0021425,2.78788
0.00214375,2.7946
0.002145,2.80099
0.00214625,2.80738
0.0021475,2.81411
0.00214875,2.82117
0.00215,2.82789
0.00215125,2.83428
0.0021525,2.84067
0.00215375,2.84672
0.002155,2.85345
0.00215625,2.86017
0.0021575,2.86656
0.00215875,2.87295
0.00216,2.87967
0.00216125,2.8864
0.0021625,2.89245
0.00216375,2.8985
0.002165,2.90523
0.00216625,2.91229
0.0021675,2.91834
0.00216875,2.92473
0.00217,2.93146
0.00217125,2.93784
0.0021725,2.94423
0.00217375,2.95029
0.002175,2.95701
0.00217625,2.96306
0.0021775,2.96945
0.00217875,2.97584
0.00218,2.98189
0.00218125,2.98828
0.0021825,2.99467
0.00218375,3.00106
0.002185,3.00677
0.00218625,3.01316
0.0021875,3.01955
0.00218875,3.02594
0.00219,3.03199
0.00219125,3.03805
0.0021925,3.04477
0.00219375,3.05082
0.002195,3.05721
0.00219625,3.0636
0.0021975,3.06898
0.00219875,3.07537
0.0022,3.08176
0.00220125,3.08781
0.0022025,3.0942
0.00220375,3.10059
0.002205,3.1063
0.00220625,3.11202
0.0022075,3.11841
0.00220875,3.1248
0.00221,3.13085
0.00221125,3.1369
0.0022125,3.14262
0.00221375,3.14901
0.002215,3.15506
0.00221625,3.16111
0.0022175,3.16683
0.00221875,3.17322
0.00222,3.17927
0.00222125,3.18498
0.0022225,3.1907
0.00222375,3.19709
0.002225,3.20314
0.00222625,3.20953
0.0022275,3.21558
0.00222875,3.2213
0.00223,3.22702
0.00223125,3.2324
0.0022325,3.23845
0.00223375,3.2445
0.002235,3.25055
0.00223625,3.25661
0.0022375,3.26165
0.00223875,3.2677
0.00224,3.27342
0.00224125,3.27947
0.0022425,3.28519
0.00224375,3.29124
0.002245,3.29695
0.00224625,3.30233
0.0022475,3.30805
0.00224875,3.31377
0.00225,3.31948
0.00225125,3.3252
0.0022525,3.33125
0.00225375,3.3373
0.002255,3.34268
0.00225625,3.34874
0.0022575,3.35445
0.00225875,3.3605
0.00226,3.36622
0.00226125,3.37126
0.0022625,3.37698
0.00226375,3.38236
0.002265,3.38808
0.00226625,3.39413
0.0022675,3.39917
0.00226875,3.40523
0.00227,3.41094
0.00227125,3.41632
0.0022725,3.4217
0.00227375,3.42742
0.002275,3.43246
0.00227625,3.43818
0.0022775,3.44457
0.00227875,3.44995
0.00228,3.45533
0.00228125,3.46071
0.0022825,3.46609
0.00228375,3.4718
0.002285,3.47718
0.00228625,3.48256
0.0022875,3.48794
0.00228875,3.49299
0.00229,3.4987
0.00229125,3.50475
0.0022925,3.5098
0.00229375,3.51551
0.002295,3.52123
0.00229625,3.52627
0.0022975,3.53165
0.00229875,3.53737
0.0023,3.54241
0.00230125,3.54813
0.0023025,3.55317
0.00230375,3.55855
0.002305,3.56427
0.00230625,3.56898
0.0023075,3.57436
0.00230875,3.58007
0.00231,3.58545
0.00231125,3.59083
0.0023125,3.59554
0.00231375,3.60058
0.002315,3.60596
0.00231625,3.61168
0.0023175,3.61706
0.00231875,3.6221
0.00232,3.62748
0.00232125,3.63219
0.0023225,3.63757
0.00232375,3.64262
0.002325,3.648
0.00232625,3.65338
0.0023275,3.65842
0.00232875,3.66346
0.00233,3.66884
0.00233125,3.67355
0.0023325,3.67859
0.00233375,3.68364
0.002335,3.68902
0.00233625,3.69406
0.0023375,3.69978
0.00233875,3.70482
0.00234,3.70986
0.00234125,3.71424
0.0023425,3.71962
0.00234375,3.72466
0.002345,3.7297
0.00234625,3.73441
0.0023475,3.73912
0.00234875,3.7445
0.00235,3.74954
0.00235125,3.75492
0.0023525,3.75996
0.00235375,3.76467
0.002355,3.76972
0.00235625,3.77476
0.0023575,3.7798
0.00235875,3.78384
0.00236,3.78922
0.00236125,3.7946
0.0023625,3.79897
0.00236375,3.80368
0.002365,3.80906
0.00236625,3.81376
0.0023675,3.81881
0.00236875,3.82385
0.00237,3.82822
0.00237125,3.83327
0.0023725,3.83797
0.00237375,3.84302
0.002375,3.84773
0.00237625,3.85243
0.0023775,3.85815
0.00237875,3.86252
0.00238,3.86756
0.00238125,3.87227
0.0023825,3.87698
0.00238375,3.88169
0.002385,3.88639
0.00238625,3.89076
0.0023875,3.89581
0.00238875,3.90085
0.00239,3.90522
0.00239125,3.90993
0.0023925,3.91497
0.00239375,3.91968
0.002395,3.92338
0.00239625,3.92842
0.0023975,3.93313
0.00239875,3.9375
0.0024,3.94187
0.00240125,3.94591
0.0024025,3.95062
0.00240375,3.95499
0.002405,3.96003
0.00240625,3.96373
0.0024075,3.96776
0.00240875,3.97214
0.00241,3.97684
0.00241125,3.98054
0.0024125,3.98491
0.00241375,3.98895
0.002415,3.99265
0.00241625,3.99635
0.0024175,3.99971
0.00241875,4.00374
0.00242,4.00744
0.00242125,4.01114
0.0024225,4.01518
0.00242375,4.01854
0.002425,4.02224
0.00242625,4.02257
0.0024275,4.01988
0.00242875,4.01551
0.00243,4.00946
0.00243125,4.00341
0.0024325,3.99735
0.00243375,3.99197
0.002435,3.98727
0.00243625,3.9829
0.0024375,3.97852
0.00243875,3.9755
0.00244,3.97214
0.00244125,3.96945
0.0024425,3.96743
0.00244375,3.96507
0.002445,3.96339
0.00244625,3.96205
0.0024475,3.96037
0.00244875,3.95969
0.00245,3.95835
0.00245125,3.95801
0.0024525,3.957
0.00245375,3.956
0.002455,3.95532
0.00245625,3.95499
0.0024575,3.95465
0.00245875,3.95431
0.00246,3.95431
0.00246125,3.95398
0.0024625,3.95364
0.00246375,3.95431
0.002465,3.95398
0.00246625,3.95398
0.0024675,3.95431
0.00246875,3.95431
0.00247,3.95465
0.00247125,3.95465
0.0024725,3.95465
0.00247375,3.95465
0.002475,3.95431
0.00247625,3.95465
0.0024775,3.95465
0.00247875,3.95465
0.00248,3.95465
0.00248125,3.95499
0.0024825,3.95499
0.00248375,3.95465
0.002485,3.95499
0.00248625,3.95532
0.0024875,3.95566
0.00248875,3.95566
0.00249,3.95566
0.00249125,3.95566
0.0024925,3.95532
0.00249375,3.95532
0.002495,3.95499
0.00249625,3.95566
0.0024975,3.95532
0.00249875,3.95499
0.0025,3.95465
0.00250125,3.95532
0.0025025,3.95532
0.00250375,3.95532
0.002505,3.95566
0.00250625,3.95499
0.0025075,3.95532
0.00250875,3.95532
0.00251,3.95532
0.00251125,3.95532
0.0025125,3.95532
0.00251375,3.95499
0.002515,3.95499
0.00251625,3.95499
0.0025175,3.95465
0.00251875,3.95499
0.00252,3.95465
0.00252125,3.95465
0.0025225,3.95465
0.00252375,3.95465
0.002525,3.95499
0.00252625,3.95465
0.0025275,3.95465
0.00252875,3.95465
0.00253,3.95465
0.00253125,3.95465
0.0025325,3.95499
0.00253375,3.95499
0.002535,3.95499
0.00253625,3.95465
0.0025375,3.95465
0.00253875,3.95465
0.00254,3.95465
0.00254125,3.95499
0.0025425,3.95431
0.00254375,3.95431
0.002545,3.95431
0.00254625,3.95499
0.0025475,3.95431
0.00254875,3.95465
0.00255,3.95465
0.00255125,3.95465
0.0025525,3.95431
0.00255375,3.95431
0.002555,3.95465
0.00255625,3.95465
0.0025575,3.95431
0.00255875,3.95431
0.00256,3.95465
0.00256125,3.95431
0.0025625,3.95431
0.00256375,3.95465
0.002565,3.95431
0.00256625,3.95431
0.0025675,3.95499
0.00256875,3.95465
0.00257,3.95465
0.00257125,3.95465
0.0025725,3.95465
0.00257375,3.95431
0.002575,3.95431
0.00257625,3.95431
0.0025775,3.95465
0.00257875,3.95465
0.00258,3.95465
0.00258125,3.95465
0.0025825,3.95465
0.00258375,3.95431
0.002585,3.95398
0.00258625,3.95431
0.0025875,3.95431
0.00258875,3.95465
0.00259,3.95431
0.00259125,3.95465
0.0025925,3.95431
0.00259375,3.95431
0.002595,3.95465
0.00259625,3.95465
0.0025975,3.95431
0.00259875,3.95431
0.0026,3.95431
0.00260125,3.95398
0.0026025,3.95431
0.00260375,3.95431
0.002605,3.95431
0.00260625,3.95465
0.0026075,3.95431
0.00260875,3.95431
0.00261,3.95398
0.00261125,3.95398
0.0026125,3.95431
0.00261375,3.95431
0.002615,3.95465
0.00261625,3.95398
0.0026175,3.95364
0.00261875,3.95398
0.00262,3.95398
0.00262125,3.95398
0.0026225,3.95465
0.00262375,3.95431
0.002625,3.95465
0.00262625,3.95431
0.0026275,3.95431
0.00262875,3.95431
0.00263,3.95465
0.00263125,3.95431
0.0026325,3.95431
0.00263375,3.95431
0.002635,3.95465
0.00263625,3.95499
0.0026375,3.95465
0.00263875,3.95499
0.00264,3.95465
0.00264125,3.95431
0.0026425,3.95398
0.00264375,3.95398
0.002645,3.95364
0.00264625,3.95431
0.0026475,3.95431
0.00264875,3.95431
0.00265,3.95465
0.00265125,3.95364
0.0026525,3.95398
0.00265375,3.95465
0.002655,3.95465
0.00265625,3.95465
0.0026575,3.95431
0.00265875,3.95431
0.00266,3.95431
0.00266125,3.95398
0.0026625,3.95431
0.00266375,3.95431
0.002665,3.95465
0.00266625,3.95431
0.0026675,3.95431
0.00266875,3.95398
0.00267,3.95465
0.00267125,3.95465
0.0026725,3.95431
0.00267375,3.95431
0.002675,3.95398
0.00267625,3.95465
0.0026775,3.95398
0.00267875,3.95364
0.00268,3.95398
0.00268125,3.95431
0.0026825,3.95364
0.00268375,3.95398
0.002685,3.95398
0.00268625,3.95398
0.0026875,3.95364
0.00268875,3.95331
0.00269,3.95364
0.00269125,3.95398
0.0026925,3.95398
0.00269375,3.95431
0.002695,3.95431
0.00269625,3.95398
0.0026975,3.95364
0.00269875,3.95398
0.0027,3.95398
0.00270125,3.95431
0.0027025,3.95398
0.00270375,3.95364
0.002705,3.95431
0.00270625,3.95398
0.0027075,3.95431
0.00270875,3.95398
0.00271,3.95364
0.00271125,3.95364
0.0027125,3.95364
0.00271375,3.95431
0.002715,3.95398
0.00271625,3.95398
0.0027175,3.95431
0.00271875,3.95431
0.00272,3.95431
0.00272125,3.95398
0.0027225,3.95398
0.00272375,3.95431
0.002725,3.95431
0.00272625,3.95431
0.0027275,3.95431
0.00272875,3.95431
0.00273,3.95398
0.00273125,3.95431
0.0027325,3.95364
0.00273375,3.95364
0.002735,3.95364
0.00273625,3.95364
0.0027375,3.95364
0.00273875,3.95331
0.00274,3.95364
0.00274125,3.95331
0.0027425,3.95331
0.00274375,3.95364
0.002745,3.95398
0.00274625,3.95398
0.0027475,3.95364
0.00274875,3.95364
0.00275,3.95297
0.00275125,3.95331
0.0027525,3.95364
0.00275375,3.95364
0.002755,3.95331
0.00275625,3.95331
0.0027575,3.95364
0.00275875,3.95398
0.00276,3.95364
0.00276125,3.95364
0.0027625,3.95364
0.00276375,3.95398
0.002765,3.95364
0.00276625,3.95364
0.0027675,3.95398
0.00276875,3.95398
0.00277,3.95364
0.00277125,3.95364
0.0027725,3.95364
0.00277375,3.95331
0.002775,3.95364
0.00277625,3.95398
0.0027775,3.95364
0.00277875,3.95364
0.00278,3.95364
0.00278125,3.95364
0.0027825,3.95398
0.00278375,3.95398
0.002785,3.95398
0.00278625,3.95398
0.0027875,3.95364
0.00278875,3.95331
0.00279,3.95398
0.00279125,3.95331
0.0027925,3.95364
0.00279375,3.95364
0.002795,3.95331
0.00279625,3.95331
0.0027975,3.95331
0.00279875,3.95398
0.0028,3.95364
0.00280125,3.95398
0.0028025,3.95431
0.00280375,3.95431
0.002805,3.95364
0.00280625,3.95398
0.0028075,3.95331
0.00280875,3.95364
0.00281,3.95364
0.00281125,3.95398
0.0028125,3.95364
0.00281375,3.95331
0.002815,3.95364
0.00281625,3.95331
0.0028175,3.95364
0.00281875,3.95364
0.00282,3.95331
0.00282125,3.95364
0.0028225,3.95331
0.00282375,3.95331
0.002825,3.95331
0.00282625,3.95297
0.0028275,3.95297
0.00282875,3.95297
0.00283,3.95297
0.00283125,3.95331
0.0028325,3.95297
0.00283375,3.95331
0.002835,3.95331
0.00283625,3.95364
0.0028375,3.95331
0.00283875,3.95364
0.00284,3.95364
0.00284125,3.95364
0.0028425,3.95364
0.00284375,3.95331
0.002845,3.95331
0.00284625,3.95331
0.0028475,3.95331
0.00284875,3.95364
0.00285,3.95398
0.00285125,3.95398
0.0028525,3.95364
0.00285375,3.95331
0.002855,3.95364
0.00285625,3.95364
0.0028575,3.95364
0.00285875,3.95331
0.00286,3.95331
0.00286125,3.95297
0.0028625,3.95364
0.00286375,3.95331
0.002865,3.95297
0.00286625,3.95297
0.0028675,3.95331
0.00286875,3.95331
0.00287,3.95331
0.00287125,3.95364
0.0028725,3.95364
0.00287375,3.95331
0.002875,3.95331
0.00287625,3.95364
0.0028775,3.95297
0.00287875,3.95364
0.00288,3.95364
0.00288125,3.95364
0.0028825,3.95364
0.00288375,3.95364
0.002885,3.95398
0.00288625,3.95398
0.0028875,3.95398
0.00288875,3.95398
0.00289,3.95364
0.00289125,3.95364
0.0028925,3.95364
0.00289375,3.95364
0.002895,3.95331
0.00289625,3.95297
0.0028975,3.95364
0.00289875,3.95364
0.0029,3.95297
0.00290125,3.95331
0.0029025,3.95364
0.00290375,3.95331
0.002905,3.95331
0.00290625,3.95297
0.0029075,3.95331
0.00290875,3.95364
0.00291,3.95398
0.00291125,3.95364
0.0029125,3.95297
0.00291375,3.95331
0.002915,3.95331
0.00291625,3.95364
0.0029175,3.95398
0.00291875,3.95364
0.00292,3.95364
0.00292125,3.95364
0.0029225,3.95364
0.00292375,3.95331
0.002925,3.95331
0.00292625,3.95331
0.0029275,3.95331
0.00292875,3.95364
0.00293,3.95398
0.00293125,3.95331
0.0029325,3.95331
0.00293375,3.95364
0.002935,3.95364
0.00293625,3.95364
0.0029375,3.95364
0.00293875,3.95364
0.00294,3.95364
0.00294125,3.95364
0.0029425,3.95331
0.00294375,3.95297
0.002945,3.95331
0.00294625,3.95263
0.0029475,3.95331
0.00294875,3.95331
0.00295,3.95364
0.00295125,3.95297
0.0029525,3.95331
0.00295375,3.95331
0.002955,3.95398
0.00295625,3.95331
0.0029575,3.95297
0.00295875,3.95331
0.00296,3.95297
0.00296125,3.95364
0.0029625,3.95331
0.00296375,3.95331
0.002965,3.95331
0.00296625,3.95331
0.0029675,3.95364
0.00296875,3.95398
0.00297,3.95398
0.00297125,3.95364
0.0029725,3.95331
0.00297375,3.95331
0.002975,3.95364
0.00297625,3.95297
0.0029775,3.95297
0.00297875,3.95331
0.00298,3.95331
0.00298125,3.95364
0.0029825,3.95331
0.00298375,3.95364
0.002985,3.95398
0.00298625,3.95331
0.0029875,3.95398
0.00298875,3.95331
0.00299,3.95331
0.00299125,3.95331
0.0029925,3.95364
0.00299375,3.95364
0.002995,3.95364
0.00299625,3.95331
0.0029975,3.95331
0.00299875,3.95297
0.003,3.93145
0.00300125,3.8911
0.0030025,3.85008
0.00300375,3.80771
0.003005,3.76635
0.00300625,3.72466
0.0030075,3.68263
0.00300875,3.6406
0.00301,3.59924
0.00301125,3.55754
0.0030125,3.51551
0.00301375,3.47416
0.003015,3.43246
0.00301625,3.39178
0.0030175,3.35042
0.00301875,3.30906
0.00302,3.2677
0.00302125,3.22634
0.0030225,3.18498
0.00302375,3.14464
0.003025,3.10361
0.00302625,3.06326
0.0030275,3.02258
0.00302875,2.98122
0.00303,2.94121
0.00303125,2.90018
0.0030325,2.85916
0.00303375,2.81915
0.003035,2.77914
0.00303625,2.73879
0.0030375,2.69844
0.00303875,2.65809
0.00304,2.61841
0.00304125,2.5784
0.0030425,2.53805
0.00304375,2.4977
0.003045,2.45836
0.00304625,2.41902
0.0030475,2.379
0.00304875,2.33966
0.00305,2.30066
0.00305125,2.26199
0.0030525,2.22467
0.00305375,2.18936
0.003055,2.15876
0.00305625,2.13186
0.0030575,2.109
0.00305875,2.08849
0.00306,2.07134
0.00306125,2.05688
0.0030625,2.04444
0.00306375,2.03402
0.003065,2.02494
0.00306625,2.0172
0.0030675,2.01081
0.00306875,2.00443
0.00307,2.00005
0.00307125,1.99602
0.0030725,1.99266
0.00307375,1.98963
0.003075,1.9866
0.00307625,1.98425
0.0030775,1.98223
0.00307875,1.98022
0.00308,1.97921
0.00308125,1.97786
0.0030825,1.97719
0.00308375,1.97618
0.003085,1.97517
0.00308625,1.9745
0.0030875,1.97416
0.00308875,1.97349
0.00309,1.97316
0.00309125,1.97349
0.0030925,1.97316
0.00309375,1.97282
0.003095,1.97248
0.00309625,1.97215
0.0030975,1.97215
0.00309875,1.97215
0.0031,1.97248
0.00310125,1.97248
0.0031025,1.97248
0.00310375,1.97248
0.003105,1.97215
0.00310625,1.97147
0.0031075,1.97181
0.00310875,1.97181
0.00311,1.97215
0.00311125,1.97215
0.0031125,1.97181
0.00311375,1.97147
0.003115,1.97147
0.00311625,1.97147
0.0031175,1.97181
0.00311875,1.97181
0.00312,1.97181
0.00312125,1.97147
0.0031225,1.97181
0.00312375,1.97181
0.003125,1.97215
0.00312625,1.97181
0.0031275,1.97147
0.00312875,1.97147
0.00313,1.97181
0.00313125,1.97147
0.0031325,1.97147
0.00313375,1.97181
0.003135,1.97147
0.00313625,1.97147
0.0031375,1.97147
0.00313875,1.97181
0.00314,1.97181
0.00314125,1.97147
0.0031425,1.97147
0.00314375,1.97147
0.003145,1.97181
0.00314625,1.97181
0.0031475,1.97147
0.00314875,1.97147
0.00315,1.97114
0.00315125,1.97147
0.0031525,1.97114
0.00315375,1.97114
0.003155,1.9708
0.00315625,1.97114
0.0031575,1.97181
0.00315875,1.97181
0.00316,1.97147
0.00316125,1.97114
0.0031625,1.97147
0.00316375,1.97147
0.003165,1.97114
0.00316625,1.97114
0.0031675,1.97114
0.00316875,1.9708
0.00317,1.97114
0.00317125,1.97114
0.0031725,1.97147
0.00317375,1.97114
0.003175,1.97114
0.00317625,1.97114
0.0031775,1.97147
0.00317875,1.97147
0.00318,1.97181
0.00318125,1.97114
0.0031825,1.9708
0.00318375,1.97114
0.003185,1.97114
0.00318625,1.97114
0.0031875,1.97147
0.00318875,1.97114
0.00319,1.97114
0.00319125,1.97147
0.0031925,1.97114
0.00319375,1.97114
0.003195,1.97114
0.00319625,1.9708
0.0031975,1.97114
0.00319875,1.97114
0.0032,1.97114
0.00320125,1.9708
0.0032025,1.97047
0.00320375,1.9708
0.003205,1.97114
0.00320625,1.97114
0.0032075,1.9708
0.00320875,1.97047
0.00321,1.97114
0.00321125,1.97147
0.0032125,1.9708
0.00321375,1.97114
0.003215,1.97114
0.00321625,1.9708
0.0032175,1.97047
0.00321875,1.97114
0.00322,1.97114
0.00322125,1.9708
0.0032225,1.9708
0.00322375,1.97047
0.003225,1.97147
0.00322625,1.9708
0.0032275,1.97114
0.00322875,1.97114
0.00323,1.97114
0.00323125,1.9708
0.0032325,1.97047
0.00323375,1.9708
0.003235,1.9708
0.00323625,1.9708
0.0032375,1.9708
0.00323875,1.9708
0.00324,1.97114
0.00324125,1.97114
0.0032425,1.9708
0.00324375,1.97047
0.003245,1.9708
0.00324625,1.9708
0.0032475,1.9708
0.00324875,1.9708
0.00325,1.9708
0.00325125,1.9708
0.0032525,1.97047
0.00325375,1.97047
0.003255,1.97047
0.00325625,1.97047
0.0032575,1.9708
0.00325875,1.9708
0.00326,1.97047
0.00326125,1.97013
0.0032625,1.9708
0.00326375,1.9708
0.003265,1.9708
0.00326625,1.97114
0.0032675,1.9708
0.00326875,1.97114
0.00327,1.97114
0.00327125,1.97114
0.0032725,1.97114
0.00327375,1.97147
0.003275,1.97147
0.00327625,1.97114
0.0032775,1.9708
0.00327875,1.9708
0.00328,1.97147
0.00328125,1.97147
0.0032825,1.97114
0.00328375,1.97147
0.003285,1.97114
0.00328625,1.97147
0.0032875,1.97147
0.00328875,1.97147
0.00329,1.9708
0.00329125,1.97114
0.0032925,1.9708
0.00329375,1.97114
0.003295,1.97114
0.00329625,1.97114
0.0032975,1.9708
0.00329875,1.97047
0.0033,1.9708
0.00330125,1.97114
0.0033025,1.97147
0.00330375,1.97147
0.003305,1.9708
0.00330625,1.9708
0.0033075,1.97114
0.00330875,1.9708
0.00331,1.9708
0.00331125,1.9708
0.0033125,1.9708
0.00331375,1.9708
0.003315,1.9708
0.00331625,1.97114
0.0033175,1.97114
0.00331875,1.9708
0.00332,1.9708
0.00332125,1.9708
0.0033225,1.9708
0.00332375,1.97114
0.003325,1.9708
0.00332625,1.97047
0.0033275,1.9708
0.00332875,1.97047
0.00333,1.97047
0.00333125,1.9708
0.0033325,1.97047
0.00333375,1.97114
0.003335,1.9708
0.00333625,1.9708
0.0033375,1.97047
0.00333875,1.97047
0.00334,1.9708
0.00334125,1.97047
0.0033425,1.9708
0.00334375,1.9708
0.003345,1.97047
0.00334625,1.9708
0.0033475,1.97047
0.00334875,1.97047
0.00335,1.97013
0.00335125,1.97013
0.0033525,1.97047
0.00335375,1.9708
0.003355,1.9708
0.00335625,1.9708
0.0033575,1.9708
0.00335875,1.97114
0.00336,1.9708
0.00336125,1.97114
0.0033625,1.97047
0.00336375,1.97114
0.003365,1.97114
0.00336625,1.9708
0.0033675,1.9708
0.00336875,1.97114
0.00337,1.97147
0.00337125,1.97114
0.0033725,1.97147
0.00337375,1.97114
0.003375,1.9708
0.00337625,1.97114
0.0033775,1.97114
0.00337875,1.9708
0.00338,1.9708
0.00338125,1.9708
0.0033825,1.97114
0.00338375,1.97114
0.003385,1.9708
0.00338625,1.9708
0.0033875,1.9708
0.00338875,1.9708
0.00339,1.97147
0.00339125,1.97114
0.0033925,1.97114
0.00339375,1.97147
0.003395,1.97147
0.00339625,1.97147
0.0033975,1.97114
0.00339875,1.97147
0.0034,1.9708
0.00340125,1.97114
0.0034025,1.97147
0.00340375,1.97181
0.003405,1.97181
0.00340625,1.97147
0.0034075,1.97147
0.00340875,1.97147
0.00341,1.97147
0.00341125,1.97114
0.0034125,1.97114
0.00341375,1.9708
0.003415,1.9708
0.00341625,1.97147
0.0034175,1.9708
0.00341875,1.9708
0.00342,1.9708
0.00342125,1.97147
0.0034225,1.97147
0.00342375,1.97114
0.003425,1.97114
0.00342625,1.97114
0.0034275,1.97114
0.00342875,1.97114
0.00343,1.9708
0.00343125,1.97114
0.0034325,1.9708
0.00343375,1.97114
0.003435,1.97114
0.00343625,1.97147
0.0034375,1.97147
0.00343875,1.97147
0.00344,1.97114
0.00344125,1.9708
0.0034425,1.9708
0.00344375,1.9708
0.003445,1.97114
0.00344625,1.9708
0.0034475,1.97047
0.00344875,1.97114
0.00345,1.97114
0.00345125,1.97147
0.0034525,1.97114
0.00345375,1.97114
0.003455,1.9708
0.00345625,1.97114
0.0034575,1.97114
0.00345875,1.97047
0.00346,1.97114
0.00346125,1.9708
0.0034625,1.97114
0.00346375,1.97114
0.003465,1.9708
0.00346625,1.97047
0.0034675,1.9708
0.00346875,1.9708
0.00347,1.9708
0.00347125,1.97114
0.0034725,1.97147
0.00347375,1.97114
0.003475,1.9708
0.00347625,1.97047
0.0034775,1.9708
0.00347875,1.9708
0.00348,1.97047
0.00348125,1.9708
0.0034825,1.9708
0.00348375,1.9708
0.003485,1.97114
0.00348625,1.97114
0.0034875,1.9708
0.00348875,1.97114
0.00349,1.97114
0.00349125,1.97114
0.0034925,1.9708
0.00349375,1.9708
0.003495,1.9708
0.00349625,1.9708
0.0034975,1.9708
0.00349875,1.97047
0.0035,1.9708
0.00350125,1.9708
0.0035025,1.9708
0.00350375,1.9708
0.003505,1.97114
0.00350625,1.97114
0.0035075,1.97114
0.00350875,1.97114
0.00351,1.97147
0.00351125,1.97147
0.0035125,1.9708
0.00351375,1.97147
0.003515,1.97114
0.00351625,1.9708
0.0035175,1.97114
0.00351875,1.97114
0.00352,1.9708
0.00352125,1.97047
0.0035225,1.9708
0.00352375,1.97114
0.003525,1.9708
0.00352625,1.97114
0.0035275,1.97114
0.00352875,1.97147
0.00353,1.97114
0.00353125,1.9708
0.0035325,1.97114
0.00353375,1.97147
0.003535,1.97147
0.00353625,1.9708
0.0035375,1.97147
0.00353875,1.97147
0.00354,1.97147
0.00354125,1.97114
0.0035425,1.97147
0.00354375,1.97114
0.003545,1.97147
0.00354625,1.97147
0.0035475,1.97114
0.00354875,1.97114
0.00355,1.97181
0.00355125,1.97181
0.0035525,1.97114
0.00355375,1.97114
0.003555,1.97147
0.00355625,1.97147
0.0035575,1.9708
0.00355875,1.97114
0.00356,1.97114
0.00356125,1.97114
0.0035625,1.97147
0.00356375,1.97147
0.003565,1.97114
0.00356625,1.97147
0.0035675,1.97181
0.00356875,1.97147
0.00357,1.97114
0.00357125,1.97114
0.0035725,1.97147
0.00357375,1.97147
0.003575,1.97114
0.00357625,1.97147
0.0035775,1.97147
0.00357875,1.97114
0.00358,1.97114
0.00358125,1.97114
0.0035825,1.97147
0.00358375,1.97147
0.003585,1.97147
0.00358625,1.97147
0.0035875,1.97114
0.00358875,1.97181
0.00359,1.97114
0.00359125,1.97114
0.0035925,1.97147
0.00359375,1.97114
0.003595,1.97114
0.00359625,1.97114
0.0035975,1.97147
0.00359875,1.97114
0.0036,1.97114
0.00360125,1.97147
0.0036025,1.97147
0.00360375,1.97147
0.003605,1.97147
0.00360625,1.97147
0.0036075,1.97147
0.00360875,1.97114
0.00361,1.97114
0.00361125,1.97114
0.0036125,1.9708
0.00361375,1.97114
0.003615,1.97114
0.00361625,1.97114
0.0036175,1.97114
0.00361875,1.97114
0.00362,1.97114
0.00362125,1.97147
0.0036225,1.9708
0.00362375,1.97147
0.003625,1.97114
0.00362625,1.97114
0.0036275,1.9708
0.00362875,1.97147
0.00363,1.9708
0.00363125,1.97114
0.0036325,1.9708
0.00363375,1.97114
0.003635,1.97114
0.00363625,1.97114
0.0036375,1.97047
0.00363875,1.9708
0.00364,1.97147
0.00364125,1.97114
0.0036425,1.97114
0.00364375,1.97114
0.003645,1.97114
0.00364625,1.97114
0.0036475,1.9708
0.00364875,1.97147
0.00365,1.97114
0.00365125,1.9708
0.0036525,1.9708
0.00365375,1.97181
0.003655,1.97114
0.00365625,1.97047
0.0036575,1.97047
0.00365875,1.9708
0.00366,1.9708
0.00366125,1.9708
0.0036625,1.97114
0.00366375,1.9708
0.003665,1.9708
0.00366625,1.97047
0.0036675,1.9708
0.00366875,1.97047
0.00367,1.97047
0.00367125,1.97047
0.0036725,1.97013
0.00367375,1.9708
0.003675,1.9708
0.00367625,1.9708
0.0036775,1.97047
0.00367875,1.97047
0.00368,1.97047
0.00368125,1.97047
0.0036825,1.97047
0.00368375,1.97047
0.003685,1.97047
0.00368625,1.97047
0.0036875,1.97047
0.00368875,1.9708
0.00369,1.97047
0.00369125,1.9708
0.0036925,1.97047
0.00369375,1.97047
0.003695,1.97047
0.00369625,1.97047
0.0036975,1.97047
0.00369875,1.9708
0.0037,1.9708
0.00370125,1.9708
0.0037025,1.96979
0.00370375,1.97013
0.003705,1.97013
0.00370625,1.97013
0.0037075,1.97013
0.00370875,1.97047
0.00371,1.9708
0.00371125,1.9708
0.0037125,1.97047
0.00371375,1.97047
0.003715,1.9708
0.00371625,1.9708
0.0037175,1.9708
0.00371875,1.97047
0.00372,1.9708
0.00372125,1.97114
0.0037225,1.9708
0.00372375,1.9708
0.003725,1.97047
0.00372625,1.9708
0.0037275,1.9708
0.00372875,1.97114
0.00373,1.9708
0.00373125,1.97114
0.0037325,1.97114
0.00373375,1.9708
0.003735,1.9708
0.00373625,1.97114
0.0037375,1.97114
0.00373875,1.9708
0.00374,1.97114
0.00374125,1.97114
0.0037425,1.97114
0.00374375,1.9708
0.003745,1.9708
0.00374625,1.97114
0.0037475,1.97114
0.00374875,1.97047
0.00375,1.9708
0.00375125,1.9708
0.0037525,1.97114
0.00375375,1.97114
0.003755,1.97114
0.00375625,1.97114
0.0037575,1.97147
0.00375875,1.97147
0.00376,1.97147
0.00376125,1.97114
0.0037625,1.97147
0.00376375,1.97181
0.003765,1.97114
0.00376625,1.97147
0.0037675,1.9708
0.00376875,1.9708
0.00377,1.97114
0.00377125,1.97114
0.0037725,1.9708
0.00377375,1.97114
0.003775,1.97114
0.00377625,1.97147
0.0037775,1.97147
0.00377875,1.97114
0.00378,1.97147
0.00378125,1.97181
0.0037825,1.97147
0.00378375,1.97147
0.003785,1.97114
0.00378625,1.97147
0.0037875,1.97181
0.00378875,1.97147
0.00379,1.97147
0.00379125,1.97147
0.0037925,1.97114
0.00379375,1.97147
0.003795,1.9708
0.00379625,1.97114
0.0037975,1.97147
0.00379875,1.97147
0.0038,1.97114
0.00380125,1.97114
0.0038025,1.97114
0.00380375,1.97114
0.003805,1.97114
0.00380625,1.97114
0.0038075,1.97114
0.00380875,1.97114
0.00381,1.97114
0.00381125,1.97114
0.0038125,1.97114
0.00381375,1.97114
0.003815,1.97114
0.00381625,1.97114
0.0038175,1.97114
0.00381875,1.97114
0.00382,1.9708
0.00382125,1.9708
0.0038225,1.97114
0.00382375,1.9708
0.003825,1.9708
0.00382625,1.97114
0.0038275,1.97114
0.00382875,1.97114
0.00383,1.97114
0.00383125,1.97114
0.0038325,1.97147
0.00383375,1.97114
0.003835,1.9708
0.00383625,1.97114
0.0038375,1.97114
0.00383875,1.97114
0.00384,1.97114
0.00384125,1.97114
0.0038425,1.97114
0.00384375,1.97114
0.003845,1.97114
0.00384625,1.97114
0.0038475,1.97114
0.00384875,1.97147
0.00385,1.97114
0.00385125,1.97114
0.0038525,1.97114
0.00385375,1.97114
0.003855,1.9708
0.00385625,1.97114
0.0038575,1.9708
0.00385875,1.9708
0.00386,1.97114
0.00386125,1.9708
0.0038625,1.97114
0.00386375,1.97114
0.003865,1.97114
0.00386625,1.97114
0.0038675,1.97147
0.00386875,1.97114
0.00387,1.97114
0.00387125,1.97114
0.0038725,1.97047
0.00387375,1.9708
0.003875,1.9708
0.00387625,1.9708
0.0038775,1.9708
0.00387875,1.9708
0.00388,1.9708
0.00388125,1.9708
0.0038825,1.9708
0.00388375,1.97114
0.003885,1.9708
0.00388625,1.97114
0.0038875,1.97114
0.00388875,1.97114
0.00389,1.9708
0.00389125,1.97114
0.0038925,1.97147
0.00389375,1.97114
0.003895,1.9708
0.00389625,1.9708
0.0038975,1.97047
0.00389875,1.9708
0.0039,1.97114
0.00390125,1.97114
0.0039025,1.9708
0.00390375,1.97114
0.003905,1.9708
0.00390625,1.97047
0.0039075,1.97047
0.00390875,1.9708
0.00391,1.9708
0.00391125,1.9708
0.0039125,1.97114
0.00391375,1.97114
0.003915,1.97114
0.00391625,1.97114
0.0039175,1.9708
0.00391875,1.97114
0.00392,1.9708
0.00392125,1.97114
0.0039225,1.97147
0.00392375,1.97147
0.003925,1.9708
0.00392625,1.97147
0.0039275,1.97114
0.00392875,1.97114
0.00393,1.9708
0.00393125,1.9708
0.0039325,1.97114
0.00393375,1.97114
0.003935,1.9708
0.00393625,1.9708
0.0039375,1.97114
0.00393875,1.97147
0.00394,1.97147
0.00394125,1.97114
0.0039425,1.9708
0.00394375,1.97147
0.003945,1.97147
0.00394625,1.97147
0.0039475,1.97147
0.00394875,1.97114
0.00395,1.97147
0.00395125,1.9708
0.0039525,1.97147
0.00395375,1.97114
0.003955,1.97114
0.00395625,1.97047
0.0039575,1.9708
0.00395875,1.97114
0.00396,1.97147
0.00396125,1.97181
0.0039625,1.97181
0.00396375,1.97181
0.003965,1.97181
0.00396625,1.97147
0.0039675,1.97114
0.00396875,1.97114
0.00397,1.97114
0.00397125,1.97114
0.0039725,1.9708
0.00397375,1.97114
0.003975,1.97114
0.00397625,1.9708
0.0039775,1.97147
0.00397875,1.97114
0.00398,1.97114
0.00398125,1.97114
0.0039825,1.97114
0.00398375,1.9708
0.003985,1.9708
0.00398625,1.9708
0.0039875,1.9708
0.00398875,1.97114
0.00399,1.97114
0.00399125,1.9708
0.0039925,1.9708
0.00399375,1.97114
0.003995,1.97114
0.00399625,1.97114
0.0039975,1.97114
0.00399875,1.98122
0.004,2.00375
0.00400125,2.00812
0.0040025,2.0125
0.00400375,2.0172
0.004005,2.02258
0.00400625,2.0283
0.0040075,2.03368
0.00400875,2.03906
0.00401,2.04545
0.00401125,2.0515
0.0040125,2.05722
0.00401375,2.06394
0.004015,2.07033
0.00401625,2.07705
0.0040175,2.08378
0.00401875,2.0905
0.00402,2.09757
0.00402125,2.10362
0.0040225,2.11001
0.00402375,2.11774
0.004025,2.1248
0.00402625,2.13186
0.0040275,2.13859
0.00402875,2.14531
0.00403,2.15305
0.00403125,2.16044
0.0040325,2.16717
0.00403375,2.17457
0.004035,2.18163
0.00403625,2.18902
0.0040375,2.19575
0.00403875,2.20281
0.00404,2.21054
0.00404125,2.21761
0.0040425,2.225
0.00404375,2.23206
0.004045,2.23913
0.00404625,2.24686
0.0040475,2.25426
0.00404875,2.26132
0.00405,2.26872
0.00405125,2.27578
0.0040525,2.28284
0.00405375,2.29057
0.004055,2.29763
0.00405625,2.30469
0.0040575,2.31209
0.00405875,2.31882
0.00406,2.32621
0.00406125,2.33361
0.0040625,2.34101
0.00406375,2.34807
0.004065,2.3558
0.00406625,2.3632
0.0040675,2.37026
0.00406875,2.37732
0.00407,2.38472
0.00407125,2.39178
0.0040725,2.39918
0.00407375,2.40624
0.004075,2.4133
0.00407625,2.42103
0.0040775,2.42776
0.00407875,2.43516
0.00408,2.44255
0.00408125,2.44928
0.0040825,2.45668
0.00408375,2.4634
0.004085,2.47114
0.00408625,2.47786
0.0040875,2.48458
0.00408875,2.49198
0.00409,2.49938
0.00409125,2.5061
0.0040925,2.51283
0.00409375,2.52023
0.004095,2.52729
0.00409625,2.53401
0.0040975,2.54175
0.00409875,2.54847
0.0041,2.55553
0.00410125,2.56293
0.0041025,2.56999
0.00410375,2.57705
0.004105,2.58378
0.00410625,2.5905
0.0041075,2.59689
0.00410875,2.60429
0.00411,2.61101
0.00411125,2.61774
0.0041125,2.6248
0.00411375,2.63152
0.004115,2.63892
0.00411625,2.64632
0.0041175,2.65271
0.00411875,2.6591
0.00412,2.66616
0.00412125,2.67288
0.0041225,2.67961
0.00412375,2.68633
0.004125,2.69339
0.00412625,2.70012
0.0041275,2.70718
0.00412875,2.71357
0.00413,2.71996
0.00413125,2.72702
0.0041325,2.73374
0.00413375,2.7408
0.004135,2.74719
0.00413625,2.75392
0.0041375,2.76031
0.00413875,2.76703
0.00414,2.77376
0.00414125,2.78048
0.0041425,2.78721
0.00414375,2.79359
0.004145,2.79965
0.00414625,2.80671
0.0041475,2.8131
0.00414875,2.81949
0.00415,2.82621
0.00415125,2.8326
0.0041525,2.83932
0.00415375,2.84605
0.004155,2.85311
0.00415625,2.85916
0.0041575,2.86589
0.00415875,2.87261
0.00416,2.87866
0.00416125,2.88505
0.0041625,2.89178
0.00416375,2.89817
0.004165,2.90489
0.00416625,2.91162
0.0041675,2.91767
0.00416875,2.92439
0.00417,2.93078
0.00417125,2.93684
0.0041725,2.94322
0.00417375,2.94928
0.004175,2.95634
0.00417625,2.96273
0.0041775,2.96878
0.00417875,2.97517
0.00418,2.98189
0.00418125,2.98828
0.0041825,2.99433
0.00418375,3.00106
0.004185,3.00677
0.00418625,3.01283
0.0041875,3.01888
0.00418875,3.02493
0.00419,3.03166
0.00419125,3.03805
0.0041925,3.04443
0.00419375,3.05049
0.004195,3.05688
0.00419625,3.06259
0.0041975,3.06932
0.00419875,3.07537
0.0042,3.08176
0.00420125,3.08747
0.0042025,3.09353
0.00420375,3.09958
0.004205,3.10563
0.00420625,3.11101
0.0042075,3.1174
0.00420875,3.12345
0.00421,3.12984
0.00421125,3.13556
0.0042125,3.14161
0.00421375,3.14766
0.004215,3.15405
0.00421625,3.1601
0.0042175,3.16582
0.00421875,3.17187
0.00422,3.17792
0.00422125,3.18398
0.0042225,3.19003
0.00422375,3.19574
0.004225,3.20213
0.00422625,3.20785
0.0042275,3.2139
0.00422875,3.21995
0.00423,3.22601
0.00423125,3.23139
0.0042325,3.23744
0.00423375,3.24383
0.004235,3.24921
0.00423625,3.25526
0.0042375,3.26198
0.00423875,3.26736
0.00424,3.27308
0.00424125,3.27913
0.0042425,3.28451
0.00424375,3.29057
0.004245,3.29628
0.00424625,3.30233
0.0042475,3.30805
0.00424875,3.31309
0.00425,3.31948
0.00425125,3.32554
0.0042525,3.33125
0.00425375,3.33697
0.004255,3.34268
0.00425625,3.34874
0.0042575,3.35412
0.00425875,3.35983
0.00426,3.36521
0.00426125,3.37093
0.0042625,3.37664
0.00426375,3.38202
0.004265,3.38774
0.00426625,3.39346
0.0042675,3.39917
0.00426875,3.40489
0.00427,3.41027
0.00427125,3.41531
0.0042725,3.42137
0.00427375,3.42708
0.004275,3.43246
0.00427625,3.43818
0.0042775,3.44356
0.00427875,3.44894
0.00428,3.45432
0.00428125,3.46003
0.0042825,3.46541
0.00428375,3.47079
0.004285,3.47617
0.00428625,3.48155
0.0042875,3.48727
0.00428875,3.49231
0.00429,3.49803
0.00429125,3.50341
0.0042925,3.50913
0.00429375,3.51484
0.004295,3.52022
0.00429625,3.5256
0.0042975,3.53031
0.00429875,3.53603
0.0043,3.54141
0.00430125,3.54712
0.0043025,3.55217
0.00430375,3.55788
0.004305,3.5636
0.00430625,3.5683
0.0043075,3.57335
0.00430875,3.57873
0.00431,3.58377
0.00431125,3.58949
0.0043125,3.5952
0.00431375,3.60025
0.004315,3.60529
0.00431625,3.61101
0.0043175,3.61605
0.00431875,3.6211
0.00432,3.62681
0.00432125,3.63219
0.0043225,3.63724
0.00432375,3.64262
0.004325,3.64766
0.00432625,3.6527
0.0043275,3.65775
0.00432875,3.66313
0.00433,3.66817
0.00433125,3.67355
0.0043325,3.67893
0.00433375,3.68364
0.004335,3.68868
0.00433625,3.69406
0.0043375,3.69944
0.00433875,3.70448
0.00434,3.70953
0.00434125,3.71424
0.0043425,3.71928
0.00434375,3.72432
0.004345,3.72937
0.00434625,3.73508
0.0043475,3.73979
0.00434875,3.74483
0.00435,3.74988
0.00435125,3.75492
0.0043525,3.75896
0.00435375,3.76467
0.004355,3.76938
0.00435625,3.77442
0.0043575,3.77879
0.00435875,3.78384
0.00436,3.78955
0.00436125,3.79426
0.0043625,3.79863
0.00436375,3.80401
0.004365,3.80906
0.00436625,3.81376
0.0043675,3.81881
0.00436875,3.82385
0.00437,3.82822
0.00437125,3.83327
0.0043725,3.83831
0.00437375,3.84268
0.004375,3.84773
0.00437625,3.85243
0.0043775,3.85714
0.00437875,3.86185
0.00438,3.86689
0.00438125,3.8716
0.0043825,3.87698
0.00438375,3.88169
0.004385,3.88606
0.00438625,3.89076
0.0043875,3.89547
0.00438875,3.90052
0.00439,3.90489
0.00439125,3.90926
0.0043925,3.91397
0.00439375,3.91867
0.004395,3.92304
0.00439625,3.92775
0.0043975,3.93246
0.00439875,3.93649
0.0044,3.94154
0.00440125,3.94591
0.0044025,3.95095
0.00440375,3.95532
0.004405,3.95936
0.00440625,3.96373
0.0044075,3.96776
0.00440875,3.97214
0.00441,3.97617
0.00441125,3.98021
0.0044125,3.98458
0.00441375,3.98828
0.004415,3.99231
0.00441625,3.99635
0.0044175,4.00038
0.00441875,4.00408
0.00442,4.00778
0.00442125,4.0108
0.0044225,4.0145
0.00442375,4.01854
0.004425,4.02224
0.00442625,4.02291
0.0044275,4.02056
0.00442875,4.01618
0.00443,4.0108
0.00443125,4.00442
0.0044325,3.99836
0.00443375,3.99265
0.004435,3.98794
0.00443625,3.98357
0.0044375,3.97987
0.00443875,3.97651
0.00444,3.97247
0.00444125,3.97012
0.0044425,3.96776
0.00444375,3.96575
0.004445,3.96373
0.00444625,3.96205
0.0044475,3.9607
0.00444875,3.95936
0.00445,3.95835
0.00445125,3.95734
0.0044525,3.95667
0.00445375,3.956
0.004455,3.95566
0.00445625,3.95499
0.0044575,3.95499
0.00445875,3.95398
0.00446,3.95398
0.00446125,3.95431
0.0044625,3.95431
0.00446375,3.95398
0.004465,3.95331
0.00446625,3.95331
0.0044675,3.95398
0.00446875,3.95398
0.00447,3.95398
0.00447125,3.95398
0.0044725,3.95431
0.00447375,3.95465
0.004475,3.95465
0.00447625,3.95499
0.0044775,3.95465
0.00447875,3.95465
0.00448,3.95499
0.00448125,3.95465
0.0044825,3.95431
0.00448375,3.95465
0.004485,3.95499
0.00448625,3.95532
0.0044875,3.95499
0.00448875,3.95465
0.00449,3.95499
0.00449125,3.95532
0.0044925,3.95532
0.00449375,3.95499
0.004495,3.95499
0.00449625,3.95566
0.0044975,3.95532
0.00449875,3.95499
0.0045,3.95499
0.00450125,3.95532
0.0045025,3.95499
0.00450375,3.95532
0.004505,3.95532
0.00450625,3.95465
0.0045075,3.95499
0.00450875,3.95499
0.00451,3.95532
0.00451125,3.95499
0.0045125,3.95499
0.00451375,3.95465
0.004515,3.95532
0.00451625,3.95566
0.0045175,3.95532
0.00451875,3.95499
0.00452,3.95499
0.00452125,3.95465
0.0045225,3.95465
0.00452375,3.95532
0.004525,3.95499
0.00452625,3.95499
0.0045275,3.95465
0.00452875,3.95465
0.00453,3.95532
0.00453125,3.95465
0.0045325,3.95465
0.00453375,3.95499
0.004535,3.95499
0.00453625,3.95465
0.0045375,3.95465
0.00453875,3.95499
0.00454,3.95465
0.00454125,3.95465
0.0045425,3.95465
0.00454375,3.95431
0.004545,3.95398
0.00454625,3.95431
0.0045475,3.95431
0.00454875,3.95431
0.00455,3.95431
0.00455125,3.95465
0.0045525,3.95465
0.00455375,3.95465
0.004555,3.95499
0.00455625,3.95431
0.0045575,3.95431
0.00455875,3.95431
0.00456,3.95398
0.00456125,3.95465
0.0045625,3.95431
0.00456375,3.95465
0.004565,3.95465
0.00456625,3.95465
0.0045675,3.95465
0.00456875,3.95465
0.00457,3.95465
0.00457125,3.95499
0.0045725,3.95398
0.00457375,3.95398
0.004575,3.95465
0.00457625,3.95499
0.0045775,3.95465
0.00457875,3.95499
0.00458,3.95499
0.00458125,3.95465
0.0045825,3.95465
0.00458375,3.95465
0.004585,3.95499
0.00458625,3.95431
0.0045875,3.95499
0.00458875,3.95465
0.00459,3.95465
0.00459125,3.95499
0.0045925,3.95499
0.00459375,3.95465
0.004595,3.95499
0.00459625,3.95499
0.0045975,3.95465
0.00459875,3.95499
0.0046,3.95465
0.00460125,3.95431
0.0046025,3.95431
0.00460375,3.95465
0.004605,3.95465
0.00460625,3.95398
0.0046075,3.95465
0.00460875,3.95499
0.00461,3.95499
0.00461125,3.95499
0.0046125,3.95499
0.00461375,3.95465
0.004615,3.95431
0.00461625,3.95431
0.0046175,3.95465
0.00461875,3.95431
0.00462,3.95431
0.00462125,3.95431
0.0046225,3.95431
0.00462375,3.95465
0.004625,3.95465
0.00462625,3.95431
0.0046275,3.95431
0.00462875,3.95398
0.00463,3.95431
0.00463125,3.95431
0.0046325,3.95431
0.00463375,3.95431
0.004635,3.95465
0.00463625,3.95431
0.0046375,3.95398
0.00463875,3.95431
0.00464,3.95364
0.00464125,3.95431
0.0046425,3.95431
0.00464375,3.95398
0.004645,3.95398
0.00464625,3.95465
0.0046475,3.95465
0.00464875,3.95364
0.00465,3.95364
0.00465125,3.95431
0.0046525,3.95431
0.00465375,3.95398
0.004655,3.95398
0.00465625,3.95364
0.0046575,3.95364
0.00465875,3.95364
0.00466,3.95398
0.00466125,3.95398
0.0046625,3.95431
0.00466375,3.95398
0.004665,3.95398
0.00466625,3.95364
0.0046675,3.95364
0.00466875,3.95431
0.00467,3.95398
0.00467125,3.95331
0.0046725,3.95331
0.00467375,3.95364
0.004675,3.95364
0.00467625,3.95398
0.0046775,3.95398
0.00467875,3.95364
0.00468,3.95431
0.00468125,3.95398
0.0046825,3.95364
0.00468375,3.95331
0.004685,3.95431
0.00468625,3.95398
0.0046875,3.95398
0.00468875,3.95465
0.00469,3.95431
0.00469125,3.95398
0.0046925,3.95398
0.00469375,3.95364
0.004695,3.95364
0.00469625,3.95398
0.0046975,3.95364
0.00469875,3.95431
0.0047,3.95364
0.00470125,3.95398
0.0047025,3.95364
0.00470375,3.95364
0.004705,3.95398
0.00470625,3.95364
0.0047075,3.95364
0.00470875,3.95398
0.00471,3.95431
0.00471125,3.95398
0.0047125,3.95398
0.00471375,3.95364
0.004715,3.95398
0.00471625,3.95398
0.0047175,3.95431
0.00471875,3.95431
0.00472,3.95465
0.00472125,3.95398
0.0047225,3.95398
0.00472375,3.95398
0.004725,3.95431
0.00472625,3.95431
0.0047275,3.95398
0.00472875,3.95364
0.00473,3.95398
0.00473125,3.95364
0.0047325,3.95398
0.00473375,3.95398
0.004735,3.95431
0.00473625,3.95431
0.0047375,3.95398
0.00473875,3.95465
0.00474,3.95398
0.00474125,3.95398
0.0047425,3.95431
0.00474375,3.95398
0.004745,3.95364
0.00474625,3.95398
0.0047475,3.95431
0.00474875,3.95465
0.00475,3.95431
0.00475125,3.95398
0.0047525,3.95398
0.00475375,3.95398
0.004755,3.95364
0.00475625,3.95364
0.0047575,3.95398
0.00475875,3.95364
0.00476,3.95398
0.00476125,3.95398
0.0047625,3.95431
0.00476375,3.95431
0.004765,3.95364
0.00476625,3.95398
0.0047675,3.95398
0.00476875,3.95465
0.00477,3.95431
0.00477125,3.95431
0.0047725,3.95398
0.00477375,3.95398
0.004775,3.95431
0.00477625,3.95398
0.0047775,3.95398
0.00477875,3.95431
0.00478,3.95398
0.00478125,3.95331
0.0047825,3.95364
0.00478375,3.95398
0.004785,3.95364
0.00478625,3.95364
0.0047875,3.95331
0.00478875,3.95364
0.00479,3.95364
0.00479125,3.95398
0.0047925,3.95364
0.00479375,3.95364
0.004795,3.95364
0.00479625,3.95364
0.0047975,3.95398
0.00479875,3.95331
0.0048,3.95297
0.00480125,3.95331
0.0048025,3.95364
0.00480375,3.95364
0.004805,3.95331
0.00480625,3.95364
0.0048075,3.95398
0.00480875,3.95364
0.00481,3.95398
0.00481125,3.95331
0.0048125,3.95331
0.00481375,3.95364
0.004815,3.95398
0.00481625,3.95364
0.0048175,3.95398
0.00481875,3.95364
0.00482,3.95398
0.00482125,3.95431
0.0048225,3.95398
0.00482375,3.95398
0.004825,3.95398
0.00482625,3.95398
0.0048275,3.95364
0.00482875,3.95398
0.00483,3.95364
0.00483125,3.95364
0.0048325,3.95398
0.00483375,3.95431
0.004835,3.95431
0.00483625,3.95331
0.0048375,3.95364
0.00483875,3.95331
0.00484,3.95364
0.00484125,3.95431
0.0048425,3.95364
0.00484375,3.95331
0.004845,3.95331
0.00484625,3.95297
0.0048475,3.95331
0.00484875,3.95364
0.00485,3.95364
0.00485125,3.95331
0.0048525,3.95331
0.00485375,3.95364
0.004855,3.95331
0.00485625,3.95364
0.0048575,3.95398
0.00485875,3.95364
0.00486,3.95331
0.00486125,3.95297
0.0048625,3.95297
0.00486375,3.95331
0.004865,3.95364
0.00486625,3.95364
0.0048675,3.95398
0.00486875,3.95364
0.00487,3.95364
0.00487125,3.95364
0.0048725,3.95331
0.00487375,3.95364
0.004875,3.95364
0.00487625,3.95331
0.0048775,3.95297
0.00487875,3.95331
0.00488,3.95331
0.00488125,3.95364
0.0048825,3.95331
0.00488375,3.95364
0.004885,3.95364
0.00488625,3.95364
0.0048875,3.95398
0.00488875,3.95398
0.00489,3.95364
0.00489125,3.95364
0.0048925,3.95331
0.00489375,3.95364
0.004895,3.95398
0.00489625,3.95364
0.0048975,3.95398
0.00489875,3.95398
0.0049,3.95364
0.00490125,3.95398
0.0049025,3.95364
0.00490375,3.95364
0.004905,3.95431
0.00490625,3.95398
0.0049075,3.95364
0.00490875,3.95364
0.00491,3.95364
0.00491125,3.95297
0.0049125,3.95331
0.00491375,3.95364
0.004915,3.95364
0.00491625,3.95364
0.0049175,3.95364
0.00491875,3.95331
0.00492,3.95331
0.00492125,3.95297
0.0049225,3.95297
0.00492375,3.95331
0.004925,3.95331
0.00492625,3.95331
0.0049275,3.95364
0.00492875,3.95331
0.00493,3.95297
0.00493125,3.95297
0.0049325,3.95263
0.00493375,3.95331
0.004935,3.95331
0.00493625,3.95331
0.0049375,3.95364
0.00493875,3.95331
0.00494,3.95331
0.00494125,3.95331
0.0049425,3.95331
0.00494375,3.95331
0.004945,3.95364
0.00494625,3.95364
0.0049475,3.95398
0.00494875,3.95398
0.00495,3.95364
0.00495125,3.95331
0.0049525,3.95331
0.00495375,3.95331
0.004955,3.95331
0.00495625,3.95364
0.0049575,3.95364
0.00495875,3.95364
0.00496,3.95331
0.00496125,3.95331
0.0049625,3.95364
0.00496375,3.95364
0.004965,3.95364
0.00496625,3.95331
0.0049675,3.95331
0.00496875,3.95331
0.00497,3.95331
0.00497125,3.95331
0.0049725,3.95364
0.00497375,3.95364
0.004975,3.95364
0.00497625,3.95364
0.0049775,3.95364
0.00497875,3.95331
0.00498,3.95398
0.00498125,3.95364
0.0049825,3.95297
0.00498375,3.95331
0.004985,3.95364
0.00498625,3.95331
0.0049875,3.95297
0.00498875,3.95263
0.00499,3.95331
0.00499125,3.95297
0.0049925,3.95331
0.00499375,3.95297
0.004995,3.95297
0.00499625,3.95331
0.0049975,3.95331
0.00499875,3.95263
0.005,3.93179
0.00500125,3.89076
0.0050025,3.84907
0.00500375,3.80771
0.005005,3.76602
0.00500625,3.72466
0.0050075,3.68229
0.00500875,3.63993
0.00501,3.59857
0.00501125,3.55654
0.0050125,3.51484
0.00501375,3.47348
0.005015,3.43213
0.00501625,3.3911
0.0050175,3.34975
0.00501875,3.30872
0.00502,3.26736
0.00502125,3.22567
0.0050225,3.18465
0.00502375,3.14396
0.005025,3.10294
0.00502625,3.06192
0.0050275,3.02123
0.00502875,2.98021
0.00503,2.93986
0.00503125,2.89918
0.0050325,2.85849
0.00503375,2.81814
0.005035,2.77813
0.00503625,2.73778
0.0050375,2.69743
0.00503875,2.65742
0.00504,2.6174
0.00504125,2.57739
0.0050425,2.53704
0.00504375,2.49736
0.005045,2.45735
0.00504625,2.41801
0.0050475,2.37833
0.00504875,2.33899
0.00505,2.29965
0.00505125,2.26098
0.0050525,2.22433
0.00505375,2.1897
0.005055,2.15876
0.00505625,2.13186
0.0050575,2.10833
0.00505875,2.08849
0.00506,2.071
0.00506125,2.05621
0.0050625,2.04444
0.00506375,2.03368
0.005065,2.02426
0.00506625,2.0172
0.0050675,2.01115
0.00506875,2.0051
0.00507,2.00005
0.00507125,1.99602
0.0050725,1.99266
0.00507375,1.98997
0.005075,1.98694
0.00507625,1.98391
0.0050775,1.98257
0.00507875,1.98055
0.00508,1.97887
0.00508125,1.97753
0.0050825,1.97652
0.00508375,1.97585
0.005085,1.97517
0.00508625,1.97517
0.0050875,1.9745
0.00508875,1.97416
0.00509,1.97316
0.00509125,1.97316
0.0050925,1.97316
0.00509375,1.97316
0.005095,1.97282
0.00509625,1.97215
0.0050975,1.97215
0.00509875,1.97248
0.0051,1.97248
0.00510125,1.97215
0.0051025,1.97215
0.00510375,1.97215
0.005105,1.97215
0.00510625,1.97215
0.0051075,1.97181
0.00510875,1.97147
0.00511,1.97215
0.00511125,1.97181
0.0051125,1.97215
0.00511375,1.97215
0.005115,1.97181
0.00511625,1.97181
0.0051175,1.97114
0.00511875,1.97114
